1: water: V/L sat. T=5, to 370, C

                          Liquid       Vapor        Liquid       Vapor        Liquid       Vapor        Liquid       Vapor        Liquid       Vapor        
Temperature  Pressure     Density      Density      Enthalpy     Enthalpy     Entropy      Entropy      Therm. Cond. Therm. Cond. Viscosity    Viscosity    Surf. Tension
(C)          (kPa)        (kg/m^3)     (kg/m^3)     (kJ/kg)      (kJ/kg)      (kJ/kg-K)    (kJ/kg-K)    (W/m-K)      (W/m-K)      (uPa-s)      (uPa-s)      (N/m)
5,0000       0,87258      999,92       0,0068022    21,020       2510,1       0,076254     9,0248       0,57052      0,017339     1518,3       9,3357       0,074942
5,5000       0,90348      999,91       0,0070306    23,122       2511,0       0,083806     9,0120       0,57147      0,017366     1494,7       9,3480       0,074870
6,0000       0,93536      999,89       0,0072657    25,224       2511,9       0,091342     8,9993       0,57242      0,017394     1471,6       9,3604       0,074799
6,5000       0,96822      999,88       0,0075077    27,326       2512,8       0,098863     8,9867       0,57337      0,017422     1449,1       9,3728       0,074727
7,0000       1,0021       999,86       0,0077566    29,426       2513,7       0,10637      8,9741       0,57432      0,017450     1427,2       9,3853       0,074655
7,5000       1,0370       999,83       0,0080127    31,527       2514,6       0,11386      8,9616       0,57527      0,017478     1405,7       9,3978       0,074583
8,0000       1,0730       999,80       0,0082762    33,627       2515,6       0,12133      8,9491       0,57622      0,017507     1384,8       9,4103       0,074511
8,5000       1,1101       999,77       0,0085471    35,726       2516,5       0,12879      8,9367       0,57717      0,017535     1364,4       9,4230       0,074439
9,0000       1,1483       999,74       0,0088258    37,825       2517,4       0,13624      8,9243       0,57811      0,017564     1344,5       9,4357       0,074366
9,5000       1,1877       999,70       0,0091124    39,923       2518,3       0,14367      8,9120       0,57906      0,017592     1325,0       9,4484       0,074294
10,000       1,2282       999,65       0,0094071    42,021       2519,2       0,15109      8,8998       0,58000      0,017621     1306,0       9,4612       0,074221
10,500       1,2700       999,61       0,0097100    44,119       2520,1       0,15849      8,8876       0,58094      0,017650     1287,4       9,4740       0,074148
11,000       1,3130       999,56       0,010021     46,216       2521,0       0,16587      8,8754       0,58188      0,017679     1269,2       9,4869       0,074075
11,500       1,3573       999,51       0,010341     48,313       2521,9       0,17325      8,8633       0,58282      0,017709     1251,5       9,4999       0,074002
12,000       1,4028       999,45       0,010670     50,409       2522,9       0,18061      8,8513       0,58376      0,017738     1234,1       9,5129       0,073929
12,500       1,4498       999,39       0,011008     52,506       2523,8       0,18795      8,8393       0,58469      0,017768     1217,1       9,5259       0,073855
13,000       1,4981       999,33       0,011355     54,601       2524,7       0,19528      8,8274       0,58562      0,017797     1200,5       9,5390       0,073782
13,500       1,5478       999,27       0,011712     56,697       2525,6       0,20260      8,8155       0,58655      0,017827     1184,3       9,5521       0,073708
14,000       1,5990       999,20       0,012078     58,792       2526,5       0,20990      8,8037       0,58748      0,017857     1168,4       9,5653       0,073634
14,500       1,6516       999,13       0,012455     60,887       2527,4       0,21719      8,7920       0,58841      0,017887     1152,8       9,5786       0,073560
15,000       1,7058       999,06       0,012841     62,981       2528,3       0,22446      8,7803       0,58933      0,017918     1137,6       9,5919       0,073486
15,500       1,7615       998,98       0,013238     65,076       2529,2       0,23173      8,7686       0,59026      0,017948     1122,7       9,6052       0,073411
16,000       1,8188       998,90       0,013645     67,170       2530,2       0,23897      8,7570       0,59117      0,017978     1108,1       9,6186       0,073337
16,500       1,8778       998,82       0,014063     69,264       2531,1       0,24621      8,7454       0,59209      0,018009     1093,8       9,6320       0,073262
17,000       1,9384       998,73       0,014493     71,357       2532,0       0,25343      8,7339       0,59300      0,018040     1079,9       9,6455       0,073188
17,500       2,0007       998,64       0,014933     73,451       2532,9       0,26064      8,7225       0,59391      0,018071     1066,1       9,6590       0,073113
18,000       2,0647       998,55       0,015385     75,544       2533,8       0,26783      8,7111       0,59482      0,018102     1052,7       9,6725       0,073038
18,500       2,1306       998,46       0,015849     77,637       2534,7       0,27501      8,6997       0,59572      0,018133     1039,6       9,6862       0,072963
19,000       2,1983       998,36       0,016325     79,729       2535,6       0,28218      8,6884       0,59663      0,018164     1026,7       9,6998       0,072887
19,500       2,2678       998,26       0,016813     81,822       2536,5       0,28934      8,6772       0,59752      0,018196     1014,0       9,7135       0,072812
20,000       2,3393       998,16       0,017314     83,914       2537,4       0,29648      8,6660       0,59842      0,018227     1001,6       9,7272       0,072736
20,500       2,4128       998,06       0,017828     86,006       2538,3       0,30361      8,6548       0,59931      0,018259     989,50       9,7410       0,072660
21,000       2,4882       997,95       0,018354     88,098       2539,3       0,31073      8,6437       0,60019      0,018291     977,59       9,7548       0,072584
21,500       2,5657       997,84       0,018895     90,190       2540,2       0,31784      8,6327       0,60108      0,018323     965,91       9,7687       0,072508
22,000       2,6453       997,73       0,019448     92,282       2541,1       0,32493      8,6217       0,60196      0,018355     954,46       9,7826       0,072432
22,500       2,7271       997,61       0,020016     94,373       2542,0       0,33201      8,6107       0,60283      0,018387     943,22       9,7965       0,072356
23,000       2,8111       997,50       0,020598     96,465       2542,9       0,33908      8,5998       0,60370      0,018420     932,19       9,8105       0,072279
23,500       2,8973       997,38       0,021195     98,556       2543,8       0,34613      8,5889       0,60457      0,018452     921,37       9,8246       0,072203
24,000       2,9858       997,25       0,021806     100,65       2544,7       0,35318      8,5781       0,60544      0,018485     910,76       9,8386       0,072126
24,500       3,0767       997,13       0,022433     102,74       2545,6       0,36021      8,5674       0,60630      0,018517     900,34       9,8527       0,072049
25,000       3,1699       997,00       0,023075     104,83       2546,5       0,36722      8,5566       0,60715      0,018550     890,11       9,8669       0,071972
25,500       3,2657       996,87       0,023733     106,92       2547,4       0,37423      8,5460       0,60800      0,018583     880,06       9,8810       0,071895
26,000       3,3639       996,74       0,024406     109,01       2548,3       0,38123      8,5353       0,60885      0,018617     870,20       9,8953       0,071818
26,500       3,4647       996,61       0,025097     111,10       2549,2       0,38821      8,5248       0,60969      0,018650     860,52       9,9095       0,071740
27,000       3,5681       996,47       0,025804     113,19       2550,1       0,39518      8,5142       0,61053      0,018683     851,01       9,9238       0,071663
27,500       3,6742       996,33       0,026528     115,28       2551,0       0,40214      8,5037       0,61136      0,018717     841,67       9,9382       0,071585
28,000       3,7831       996,19       0,027269     117,37       2551,9       0,40908      8,4933       0,61219      0,018750     832,49       9,9525       0,071507
28,500       3,8947       996,05       0,028028     119,46       2552,8       0,41602      8,4829       0,61301      0,018784     823,47       9,9669       0,071429
29,000       4,0092       995,90       0,028805     121,55       2553,7       0,42294      8,4725       0,61383      0,018818     814,62       9,9814       0,071351
29,500       4,1266       995,76       0,029601     123,64       2554,6       0,42985      8,4622       0,61465      0,018852     805,91       9,9959       0,071273
30,000       4,2470       995,61       0,030415     125,73       2555,5       0,43675      8,4520       0,61546      0,018887     797,36       10,010       0,071194
30,500       4,3704       995,45       0,031249     127,82       2556,4       0,44364      8,4417       0,61626      0,018921     788,95       10,025       0,071116
31,000       4,4969       995,30       0,032102     129,91       2557,3       0,45052      8,4316       0,61706      0,018955     780,68       10,039       0,071037
31,500       4,6266       995,14       0,032975     132,00       2558,3       0,45739      8,4214       0,61786      0,018990     772,55       10,054       0,070958
32,000       4,7596       994,99       0,033868     134,09       2559,2       0,46424      8,4113       0,61865      0,019025     764,56       10,069       0,070879
32,500       4,8958       994,82       0,034782     136,18       2560,1       0,47108      8,4013       0,61943      0,019060     756,71       10,083       0,070800
33,000       5,0354       994,66       0,035717     138,27       2561,0       0,47792      8,3913       0,62021      0,019095     748,98       10,098       0,070721
33,500       5,1785       994,50       0,036673     140,36       2561,9       0,48474      8,3813       0,62099      0,019130     741,38       10,113       0,070641
34,000       5,3251       994,33       0,037651     142,45       2562,8       0,49155      8,3714       0,62176      0,019165     733,90       10,128       0,070562
34,500       5,4752       994,16       0,038651     144,54       2563,6       0,49834      8,3615       0,62252      0,019200     726,55       10,143       0,070482
35,000       5,6290       993,99       0,039674     146,63       2564,5       0,50513      8,3517       0,62328      0,019236     719,31       10,157       0,070402
35,500       5,7866       993,82       0,040720     148,72       2565,4       0,51191      8,3419       0,62404      0,019272     712,20       10,172       0,070322
36,000       5,9479       993,64       0,041790     150,81       2566,3       0,51867      8,3321       0,62479      0,019307     705,19       10,187       0,070242
36,500       6,1131       993,47       0,042883     152,90       2567,2       0,52543      8,3224       0,62553      0,019343     698,30       10,202       0,070162
37,000       6,2823       993,29       0,044001     154,99       2568,1       0,53217      8,3127       0,62627      0,019379     691,51       10,217       0,070081
37,500       6,4555       993,11       0,045143     157,08       2569,0       0,53890      8,3031       0,62700      0,019416     684,84       10,232       0,070001
38,000       6,6328       992,92       0,046311     159,17       2569,9       0,54562      8,2935       0,62773      0,019452     678,26       10,247       0,069920
38,500       6,8144       992,74       0,047504     161,26       2570,8       0,55233      8,2840       0,62845      0,019488     671,79       10,262       0,069839
39,000       7,0002       992,55       0,048723     163,35       2571,7       0,55903      8,2745       0,62917      0,019525     665,42       10,277       0,069759
39,500       7,1903       992,37       0,049969     165,44       2572,6       0,56572      8,2650       0,62988      0,019562     659,15       10,292       0,069678
40,000       7,3849       992,18       0,051242     167,53       2573,5       0,57240      8,2555       0,63058      0,019599     652,97       10,308       0,069596
40,500       7,5841       991,98       0,052543     169,62       2574,4       0,57907      8,2462       0,63129      0,019636     646,89       10,323       0,069515
41,000       7,7878       991,79       0,053871     171,71       2575,3       0,58573      8,2368       0,63198      0,019673     640,89       10,338       0,069434
41,500       7,9963       991,59       0,055228     173,80       2576,2       0,59237      8,2275       0,63267      0,019710     634,99       10,353       0,069352
42,000       8,2096       991,40       0,056614     175,89       2577,1       0,59901      8,2182       0,63335      0,019747     629,18       10,368       0,069270
42,500       8,4277       991,20       0,058029     177,98       2578,0       0,60564      8,2090       0,63403      0,019785     623,45       10,384       0,069188
43,000       8,6508       991,00       0,059474     180,07       2578,9       0,61225      8,1998       0,63471      0,019823     617,81       10,399       0,069106
43,500       8,8790       990,79       0,060950     182,16       2579,8       0,61886      8,1906       0,63537      0,019860     612,25       10,414       0,069024
44,000       9,1124       990,59       0,062457     184,25       2580,6       0,62545      8,1815       0,63604      0,019898     606,77       10,430       0,068942
44,500       9,3510       990,38       0,063995     186,34       2581,5       0,63204      8,1724       0,63669      0,019937     601,37       10,445       0,068859
45,000       9,5950       990,17       0,065565     188,43       2582,4       0,63861      8,1633       0,63734      0,019975     596,05       10,461       0,068777
45,500       9,8444       989,96       0,067168     190,53       2583,3       0,64518      8,1543       0,63799      0,020013     590,81       10,476       0,068694
46,000       10,099       989,75       0,068803     192,62       2584,2       0,65173      8,1453       0,63863      0,020052     585,64       10,492       0,068611
46,500       10,360       989,54       0,070473     194,71       2585,1       0,65828      8,1364       0,63926      0,020090     580,55       10,507       0,068528
47,000       10,627       989,32       0,072176     196,80       2586,0       0,66481      8,1275       0,63989      0,020129     575,52       10,523       0,068445
47,500       10,899       989,11       0,073914     198,89       2586,9       0,67134      8,1186       0,64052      0,020168     570,57       10,538       0,068362
48,000       11,177       988,89       0,075688     200,98       2587,8       0,67785      8,1098       0,64114      0,020207     565,69       10,554       0,068279
48,500       11,461       988,67       0,077497     203,07       2588,6       0,68435      8,1010       0,64175      0,020246     560,88       10,569       0,068195
49,000       11,752       988,44       0,079343     205,16       2589,5       0,69085      8,0922       0,64236      0,020286     556,13       10,585       0,068112
49,500       12,049       988,22       0,081226     207,25       2590,4       0,69733      8,0835       0,64296      0,020325     551,45       10,601       0,068028
50,000       12,352       988,00       0,083147     209,34       2591,3       0,70381      8,0748       0,64355      0,020365     546,83       10,616       0,067944
50,500       12,662       987,77       0,085106     211,43       2592,2       0,71027      8,0662       0,64414      0,020404     542,28       10,632       0,067860
51,000       12,978       987,54       0,087103     213,52       2593,1       0,71673      8,0576       0,64473      0,020444     537,79       10,648       0,067776
51,500       13,301       987,31       0,089140     215,62       2593,9       0,72317      8,0490       0,64531      0,020484     533,36       10,663       0,067691
52,000       13,631       987,08       0,091217     217,71       2594,8       0,72961      8,0404       0,64588      0,020525     528,99       10,679       0,067607
52,500       13,968       986,85       0,093335     219,80       2595,7       0,73604      8,0319       0,64645      0,020565     524,67       10,695       0,067522
53,000       14,312       986,61       0,095494     221,89       2596,6       0,74245      8,0234       0,64702      0,020605     520,42       10,711       0,067438
53,500       14,664       986,37       0,097695     223,98       2597,5       0,74886      8,0150       0,64757      0,020646     516,22       10,727       0,067353
54,000       15,022       986,14       0,099938     226,07       2598,3       0,75526      8,0066       0,64813      0,020687     512,08       10,743       0,067268
54,500       15,388       985,90       0,10223      228,16       2599,2       0,76164      7,9982       0,64867      0,020728     507,99       10,758       0,067183
55,000       15,762       985,66       0,10456      230,26       2600,1       0,76802      7,9898       0,64922      0,020769     503,96       10,774       0,067098
55,500       16,144       985,41       0,10693      232,35       2601,0       0,77439      7,9815       0,64975      0,020810     499,98       10,790       0,067012
56,000       16,533       985,17       0,10935      234,44       2601,8       0,78075      7,9732       0,65028      0,020851     496,05       10,806       0,066927
56,500       16,930       984,92       0,11182      236,53       2602,7       0,78710      7,9650       0,65081      0,020893     492,17       10,822       0,066841
57,000       17,336       984,68       0,11433      238,62       2603,6       0,79344      7,9568       0,65133      0,020934     488,34       10,838       0,066755
57,500       17,749       984,43       0,11689      240,72       2604,5       0,79977      7,9486       0,65185      0,020976     484,56       10,854       0,066670
58,000       18,171       984,18       0,11950      242,81       2605,3       0,80610      7,9404       0,65236      0,021018     480,83       10,870       0,066584
58,500       18,602       983,92       0,12216      244,90       2606,2       0,81241      7,9323       0,65286      0,021060     477,15       10,886       0,066497
59,000       19,041       983,67       0,12486      246,99       2607,1       0,81871      7,9242       0,65336      0,021102     473,51       10,902       0,066411
59,500       19,489       983,42       0,12762      249,09       2608,0       0,82501      7,9162       0,65386      0,021144     469,92       10,918       0,066325
60,000       19,946       983,16       0,13043      251,18       2608,8       0,83129      7,9081       0,65435      0,021187     466,38       10,935       0,066238
60,500       20,413       982,90       0,13328      253,27       2609,7       0,83757      7,9002       0,65483      0,021229     462,88       10,951       0,066152
61,000       20,888       982,64       0,13620      255,37       2610,6       0,84384      7,8922       0,65531      0,021272     459,42       10,967       0,066065
61,500       21,373       982,38       0,13916      257,46       2611,4       0,85009      7,8843       0,65578      0,021315     456,00       10,983       0,065978
62,000       21,867       982,12       0,14218      259,55       2612,3       0,85634      7,8764       0,65625      0,021358     452,63       10,999       0,065891
62,500       22,371       981,86       0,14525      261,65       2613,2       0,86258      7,8685       0,65672      0,021401     449,30       11,015       0,065804
63,000       22,885       981,59       0,14838      263,74       2614,0       0,86882      7,8607       0,65718      0,021445     446,01       11,032       0,065716
63,500       23,409       981,33       0,15156      265,83       2614,9       0,87504      7,8528       0,65763      0,021488     442,76       11,048       0,065629
64,000       23,943       981,06       0,15480      267,93       2615,8       0,88125      7,8451       0,65808      0,021532     439,55       11,064       0,065541
64,500       24,487       980,79       0,15810      270,02       2616,6       0,88746      7,8373       0,65852      0,021576     436,38       11,080       0,065454
65,000       25,042       980,52       0,16146      272,12       2617,5       0,89365      7,8296       0,65896      0,021620     433,24       11,097       0,065366
65,500       25,607       980,25       0,16487      274,21       2618,4       0,89984      7,8219       0,65940      0,021664     430,15       11,113       0,065278
66,000       26,183       979,97       0,16835      276,30       2619,2       0,90602      7,8142       0,65983      0,021708     427,09       11,129       0,065190
66,500       26,770       979,70       0,17189      278,40       2620,1       0,91219      7,8066       0,66025      0,021753     424,06       11,146       0,065102
67,000       27,368       979,42       0,17549      280,49       2621,0       0,91835      7,7990       0,66067      0,021797     421,08       11,162       0,065013
67,500       27,978       979,14       0,17915      282,59       2621,8       0,92450      7,7914       0,66109      0,021842     418,12       11,178       0,064925
68,000       28,599       978,86       0,18288      284,68       2622,7       0,93064      7,7839       0,66150      0,021887     415,21       11,195       0,064836
68,500       29,232       978,58       0,18667      286,78       2623,5       0,93678      7,7764       0,66190      0,021932     412,32       11,211       0,064748
69,000       29,876       978,30       0,19052      288,87       2624,4       0,94291      7,7689       0,66230      0,021977     409,47       11,228       0,064659
69,500       30,532       978,02       0,19444      290,97       2625,2       0,94902      7,7614       0,66270      0,022022     406,66       11,244       0,064570
70,000       31,201       977,73       0,19843      293,07       2626,1       0,95513      7,7540       0,66309      0,022068     403,87       11,260       0,064481
70,500       31,882       977,45       0,20249      295,16       2627,0       0,96123      7,7466       0,66348      0,022114     401,12       11,277       0,064392
71,000       32,575       977,16       0,20661      297,26       2627,8       0,96733      7,7392       0,66386      0,022159     398,40       11,293       0,064302
71,500       33,281       976,87       0,21081      299,35       2628,7       0,97341      7,7319       0,66424      0,022205     395,71       11,310       0,064213
72,000       34,000       976,58       0,21507      301,45       2629,5       0,97949      7,7246       0,66461      0,022251     393,06       11,326       0,064123
72,500       34,732       976,29       0,21941      303,55       2630,4       0,98555      7,7173       0,66498      0,022298     390,43       11,343       0,064033
73,000       35,478       976,00       0,22382      305,64       2631,2       0,99161      7,7100       0,66535      0,022344     387,83       11,359       0,063944
73,500       36,236       975,70       0,22830      307,74       2632,1       0,99766      7,7028       0,66571      0,022391     385,26       11,376       0,063854
74,000       37,009       975,41       0,23285      309,84       2632,9       1,0037       7,6955       0,66606      0,022438     382,72       11,393       0,063764
74,500       37,795       975,11       0,23749      311,93       2633,8       1,0097       7,6884       0,66641      0,022484     380,21       11,409       0,063673
75,000       38,595       974,81       0,24219      314,03       2634,6       1,0158       7,6812       0,66676      0,022531     377,72       11,426       0,063583
75,500       39,410       974,52       0,24698      316,13       2635,4       1,0218       7,6741       0,66710      0,022579     375,27       11,442       0,063493
76,000       40,239       974,22       0,25184      318,22       2636,3       1,0278       7,6670       0,66744      0,022626     372,84       11,459       0,063402
76,500       41,082       973,91       0,25678      320,32       2637,1       1,0338       7,6599       0,66777      0,022674     370,43       11,476       0,063311
77,000       41,941       973,61       0,26180      322,42       2638,0       1,0398       7,6528       0,66810      0,022721     368,06       11,492       0,063220
77,500       42,814       973,31       0,26691      324,52       2638,8       1,0458       7,6458       0,66843      0,022769     365,71       11,509       0,063129
78,000       43,703       973,00       0,27209      326,62       2639,7       1,0517       7,6388       0,66875      0,022817     363,38       11,526       0,063038
78,500       44,607       972,69       0,27736      328,72       2640,5       1,0577       7,6318       0,66906      0,022865     361,08       11,542       0,062947
79,000       45,527       972,39       0,28271      330,81       2641,3       1,0637       7,6249       0,66938      0,022914     358,81       11,559       0,062856
79,500       46,463       972,08       0,28815      332,91       2642,2       1,0696       7,6180       0,66968      0,022962     356,56       11,576       0,062764
80,000       47,414       971,77       0,29367      335,01       2643,0       1,0756       7,6111       0,66999      0,023011     354,33       11,592       0,062673
80,500       48,383       971,45       0,29928      337,11       2643,9       1,0815       7,6042       0,67029      0,023060     352,13       11,609       0,062581
81,000       49,367       971,14       0,30498      339,21       2644,7       1,0874       7,5973       0,67058      0,023109     349,95       11,626       0,062489
81,500       50,369       970,83       0,31077      341,31       2645,5       1,0934       7,5905       0,67088      0,023158     347,80       11,643       0,062397
82,000       51,387       970,51       0,31665      343,41       2646,4       1,0993       7,5837       0,67116      0,023207     345,66       11,659       0,062305
82,500       52,423       970,19       0,32262      345,51       2647,2       1,1052       7,5769       0,67145      0,023257     343,55       11,676       0,062213
83,000       53,476       969,88       0,32868      347,61       2648,0       1,1111       7,5702       0,67173      0,023307     341,47       11,693       0,062121
83,500       54,546       969,56       0,33484      349,71       2648,8       1,1170       7,5634       0,67200      0,023356     339,40       11,710       0,062028
84,000       55,635       969,24       0,34109      351,81       2649,7       1,1229       7,5567       0,67228      0,023406     337,36       11,727       0,061936
84,500       56,742       968,91       0,34743      353,91       2650,5       1,1287       7,5501       0,67255      0,023457     335,33       11,743       0,061843
85,000       57,867       968,59       0,35388      356,01       2651,3       1,1346       7,5434       0,67281      0,023507     333,33       11,760       0,061750
85,500       59,011       968,27       0,36042      358,12       2652,2       1,1405       7,5368       0,67307      0,023557     331,35       11,777       0,061658
86,000       60,173       967,94       0,36706      360,22       2653,0       1,1463       7,5302       0,67333      0,023608     329,39       11,794       0,061565
86,500       61,355       967,62       0,37380      362,32       2653,8       1,1522       7,5236       0,67358      0,023659     327,45       11,811       0,061471
87,000       62,556       967,29       0,38064      364,42       2654,6       1,1580       7,5170       0,67383      0,023710     325,52       11,828       0,061378
87,500       63,776       966,96       0,38759      366,52       2655,4       1,1638       7,5105       0,67408      0,023761     323,62       11,844       0,061285
88,000       65,017       966,63       0,39464      368,63       2656,3       1,1696       7,5040       0,67432      0,023812     321,74       11,861       0,061191
88,500       66,277       966,30       0,40179      370,73       2657,1       1,1755       7,4975       0,67456      0,023864     319,88       11,878       0,061098
89,000       67,558       965,96       0,40905      372,83       2657,9       1,1813       7,4910       0,67479      0,023916     318,03       11,895       0,061004
89,500       68,860       965,63       0,41642      374,94       2658,7       1,1871       7,4845       0,67502      0,023967     316,21       11,912       0,060910
90,000       70,182       965,30       0,42390      377,04       2659,5       1,1929       7,4781       0,67525      0,024019     314,40       11,929       0,060816
90,500       71,525       964,96       0,43148      379,14       2660,3       1,1987       7,4717       0,67548      0,024072     312,61       11,946       0,060722
91,000       72,890       964,62       0,43918      381,25       2661,2       1,2044       7,4653       0,67570      0,024124     310,84       11,963       0,060628
91,500       74,276       964,28       0,44699      383,35       2662,0       1,2102       7,4590       0,67591      0,024177     309,08       11,980       0,060533
92,000       75,684       963,94       0,45491      385,46       2662,8       1,2160       7,4526       0,67613      0,024229     307,35       11,997       0,060439
92,500       77,115       963,60       0,46295      387,56       2663,6       1,2217       7,4463       0,67634      0,024282     305,63       12,014       0,060344
93,000       78,568       963,26       0,47111      389,67       2664,4       1,2275       7,4400       0,67654      0,024335     303,92       12,031       0,060250
93,500       80,043       962,92       0,47938      391,77       2665,2       1,2332       7,4338       0,67675      0,024388     302,24       12,048       0,060155
94,000       81,541       962,57       0,48777      393,88       2666,0       1,2389       7,4275       0,67695      0,024442     300,57       12,065       0,060060
94,500       83,063       962,23       0,49628      395,98       2666,8       1,2447       7,4213       0,67714      0,024495     298,92       12,082       0,059965
95,000       84,608       961,88       0,50491      398,09       2667,6       1,2504       7,4151       0,67734      0,024549     297,28       12,099       0,059870
95,500       86,178       961,53       0,51366      400,20       2668,4       1,2561       7,4089       0,67753      0,024603     295,66       12,116       0,059774
96,000       87,771       961,18       0,52254      402,30       2669,2       1,2618       7,4027       0,67771      0,024657     294,05       12,133       0,059679
96,500       89,388       960,83       0,53154      404,41       2670,0       1,2675       7,3966       0,67790      0,024711     292,46       12,150       0,059584
97,000       91,030       960,48       0,54067      406,52       2670,8       1,2732       7,3904       0,67808      0,024766     290,88       12,167       0,059488
97,500       92,698       960,13       0,54993      408,62       2671,6       1,2789       7,3843       0,67825      0,024821     289,32       12,184       0,059392
98,000       94,390       959,78       0,55931      410,73       2672,4       1,2846       7,3783       0,67843      0,024875     287,78       12,201       0,059296
98,500       96,108       959,42       0,56883      412,84       2673,2       1,2902       7,3722       0,67860      0,024930     286,25       12,218       0,059200
99,000       97,852       959,06       0,57847      414,95       2674,0       1,2959       7,3661       0,67877      0,024985     284,73       12,235       0,059104
99,500       99,622       958,71       0,58825      417,06       2674,8       1,3016       7,3601       0,67893      0,025041     283,23       12,252       0,059008
100,00       101,42       958,35       0,59817      419,17       2675,6       1,3072       7,3541       0,67909      0,025096     281,74       12,269       0,058912
100,50       103,24       957,99       0,60822      421,28       2676,4       1,3129       7,3481       0,67925      0,025152     280,27       12,286       0,058815
101,00       105,09       957,63       0,61841      423,39       2677,1       1,3185       7,3422       0,67941      0,025208     278,81       12,303       0,058719
101,50       106,97       957,27       0,62874      425,50       2677,9       1,3241       7,3362       0,67956      0,025264     277,36       12,320       0,058622
102,00       108,87       956,90       0,63920      427,61       2678,7       1,3297       7,3303       0,67971      0,025320     275,93       12,338       0,058525
102,50       110,81       956,54       0,64981      429,72       2679,5       1,3354       7,3244       0,67985      0,025377     274,51       12,355       0,058429
103,00       112,77       956,18       0,66056      431,83       2680,3       1,3410       7,3185       0,67999      0,025433     273,10       12,372       0,058332
103,50       114,76       955,81       0,67146      433,94       2681,1       1,3466       7,3126       0,68013      0,025490     271,71       12,389       0,058235
104,00       116,78       955,44       0,68250      436,05       2681,8       1,3522       7,3068       0,68027      0,025547     270,33       12,406       0,058137
104,50       118,83       955,07       0,69369      438,16       2682,6       1,3578       7,3010       0,68041      0,025604     268,96       12,423       0,058040
105,00       120,90       954,70       0,70503      440,27       2683,4       1,3633       7,2952       0,68054      0,025661     267,60       12,440       0,057943
105,50       123,01       954,33       0,71652      442,39       2684,2       1,3689       7,2894       0,68066      0,025719     266,26       12,457       0,057845
106,00       125,15       953,96       0,72816      444,50       2684,9       1,3745       7,2836       0,68079      0,025777     264,93       12,475       0,057747
106,50       127,32       953,59       0,73995      446,61       2685,7       1,3801       7,2778       0,68091      0,025834     263,61       12,492       0,057650
107,00       129,52       953,22       0,75190      448,73       2686,5       1,3856       7,2721       0,68103      0,025892     262,30       12,509       0,057552
107,50       131,75       952,84       0,76401      450,84       2687,2       1,3912       7,2664       0,68115      0,025951     261,01       12,526       0,057454
108,00       134,01       952,46       0,77627      452,95       2688,0       1,3967       7,2607       0,68126      0,026009     259,72       12,543       0,057356
108,50       136,30       952,09       0,78869      455,07       2688,8       1,4023       7,2550       0,68137      0,026068     258,45       12,560       0,057257
109,00       138,63       951,71       0,80127      457,18       2689,5       1,4078       7,2493       0,68148      0,026126     257,19       12,578       0,057159
109,50       140,99       951,33       0,81402      459,30       2690,3       1,4133       7,2437       0,68159      0,026185     255,94       12,595       0,057061
110,00       143,38       950,95       0,82693      461,42       2691,1       1,4188       7,2381       0,68169      0,026245     254,70       12,612       0,056962
110,50       145,80       950,57       0,84000      463,53       2691,8       1,4243       7,2325       0,68179      0,026304     253,47       12,629       0,056863
111,00       148,26       950,18       0,85325      465,65       2692,6       1,4298       7,2269       0,68189      0,026363     252,25       12,646       0,056765
111,50       150,75       949,80       0,86666      467,76       2693,3       1,4353       7,2213       0,68198      0,026423     251,05       12,663       0,056666
112,00       153,28       949,41       0,88024      469,88       2694,1       1,4408       7,2157       0,68207      0,026483     249,85       12,681       0,056567
112,50       155,84       949,03       0,89399      472,00       2694,8       1,4463       7,2102       0,68216      0,026543     248,66       12,698       0,056468
113,00       158,44       948,64       0,90792      474,12       2695,6       1,4518       7,2047       0,68225      0,026603     247,49       12,715       0,056368
113,50       161,07       948,25       0,92202      476,24       2696,3       1,4573       7,1992       0,68233      0,026664     246,32       12,732       0,056269
114,00       163,74       947,86       0,93630      478,35       2697,1       1,4628       7,1937       0,68241      0,026724     245,17       12,749       0,056170
114,50       166,44       947,47       0,95076      480,47       2697,8       1,4682       7,1882       0,68249      0,026785     244,02       12,767       0,056070
115,00       169,18       947,08       0,96540      482,59       2698,6       1,4737       7,1828       0,68257      0,026846     242,89       12,784       0,055970
115,50       171,96       946,69       0,98022      484,71       2699,3       1,4791       7,1773       0,68264      0,026907     241,76       12,801       0,055871
116,00       174,77       946,30       0,99522      486,83       2700,1       1,4846       7,1719       0,68271      0,026969     240,65       12,818       0,055771
116,50       177,63       945,90       1,0104       488,95       2700,8       1,4900       7,1665       0,68278      0,027030     239,54       12,836       0,055671
117,00       180,52       945,50       1,0258       491,08       2701,5       1,4954       7,1611       0,68285      0,027092     238,44       12,853       0,055571
117,50       183,44       945,11       1,0414       493,20       2702,3       1,5009       7,1557       0,68291      0,027154     237,36       12,870       0,055471
118,00       186,41       944,71       1,0571       495,32       2703,0       1,5063       7,1504       0,68297      0,027216     236,28       12,887       0,055370
118,50       189,42       944,31       1,0731       497,44       2703,7       1,5117       7,1450       0,68303      0,027278     235,21       12,904       0,055270
119,00       192,46       943,91       1,0892       499,56       2704,5       1,5171       7,1397       0,68308      0,027341     234,15       12,922       0,055169
119,50       195,55       943,51       1,1055       501,69       2705,2       1,5225       7,1344       0,68314      0,027404     233,09       12,939       0,055069
120,00       198,67       943,11       1,1221       503,81       2705,9       1,5279       7,1291       0,68319      0,027467     232,05       12,956       0,054968
120,50       201,84       942,70       1,1388       505,94       2706,7       1,5333       7,1238       0,68324      0,027530     231,02       12,973       0,054867
121,00       205,05       942,30       1,1557       508,06       2707,4       1,5387       7,1186       0,68328      0,027593     229,99       12,991       0,054766
121,50       208,30       941,89       1,1729       510,19       2708,1       1,5441       7,1133       0,68333      0,027656     228,97       13,008       0,054665
122,00       211,59       941,49       1,1902       512,31       2708,8       1,5494       7,1081       0,68337      0,027720     227,97       13,025       0,054564
122,50       214,92       941,08       1,2078       514,44       2709,5       1,5548       7,1029       0,68340      0,027784     226,97       13,042       0,054463
123,00       218,30       940,67       1,2255       516,56       2710,3       1,5602       7,0977       0,68344      0,027848     225,97       13,060       0,054362
123,50       221,72       940,26       1,2435       518,69       2711,0       1,5655       7,0925       0,68347      0,027912     224,99       13,077       0,054260
124,00       225,18       939,85       1,2617       520,82       2711,7       1,5709       7,0873       0,68351      0,027977     224,01       13,094       0,054159
124,50       228,69       939,44       1,2801       522,95       2712,4       1,5762       7,0822       0,68353      0,028041     223,04       13,111       0,054057
125,00       232,24       939,02       1,2987       525,07       2713,1       1,5816       7,0770       0,68356      0,028106     222,08       13,129       0,053955
125,50       235,83       938,61       1,3175       527,20       2713,8       1,5869       7,0719       0,68359      0,028171     221,13       13,146       0,053853
126,00       239,47       938,19       1,3365       529,33       2714,5       1,5922       7,0668       0,68361      0,028236     220,19       13,163       0,053751
126,50       243,16       937,78       1,3558       531,46       2715,2       1,5975       7,0617       0,68363      0,028302     219,25       13,180       0,053649
127,00       246,89       937,36       1,3753       533,59       2715,9       1,6029       7,0566       0,68364      0,028367     218,32       13,198       0,053547
127,50       250,67       936,94       1,3950       535,72       2716,6       1,6082       7,0516       0,68366      0,028433     217,40       13,215       0,053445
128,00       254,50       936,52       1,4149       537,85       2717,3       1,6135       7,0465       0,68367      0,028499     216,48       13,232       0,053343
128,50       258,37       936,10       1,4351       539,99       2718,0       1,6188       7,0415       0,68368      0,028565     215,58       13,249       0,053240
129,00       262,29       935,68       1,4555       542,12       2718,7       1,6241       7,0364       0,68369      0,028631     214,68       13,267       0,053138
129,50       266,26       935,26       1,4761       544,25       2719,4       1,6294       7,0314       0,68370      0,028698     213,78       13,284       0,053035
130,00       270,28       934,83       1,4970       546,38       2720,1       1,6346       7,0264       0,68370      0,028765     212,90       13,301       0,052932
130,50       274,35       934,41       1,5181       548,52       2720,8       1,6399       7,0214       0,68370      0,028832     212,02       13,319       0,052829
131,00       278,46       933,98       1,5394       550,65       2721,5       1,6452       7,0165       0,68370      0,028899     211,14       13,336       0,052726
131,50       282,63       933,56       1,5610       552,79       2722,1       1,6505       7,0115       0,68370      0,028966     210,28       13,353       0,052623
132,00       286,85       933,13       1,5828       554,92       2722,8       1,6557       7,0066       0,68369      0,029034     209,42       13,370       0,052520
132,50       291,11       932,70       1,6049       557,06       2723,5       1,6610       7,0017       0,68368      0,029101     208,57       13,388       0,052417
133,00       295,43       932,27       1,6272       559,19       2724,2       1,6662       6,9967       0,68367      0,029169     207,72       13,405       0,052313
133,50       299,80       931,84       1,6498       561,33       2724,9       1,6715       6,9918       0,68366      0,029237     206,88       13,422       0,052210
134,00       304,23       931,41       1,6726       563,47       2725,5       1,6767       6,9869       0,68364      0,029306     206,05       13,439       0,052106
134,50       308,70       930,97       1,6957       565,61       2726,2       1,6820       6,9821       0,68363      0,029374     205,22       13,457       0,052003
135,00       313,23       930,54       1,7190       567,74       2726,9       1,6872       6,9772       0,68361      0,029443     204,40       13,474       0,051899
135,50       317,81       930,10       1,7426       569,88       2727,5       1,6924       6,9724       0,68359      0,029512     203,59       13,491       0,051795
136,00       322,45       929,67       1,7664       572,02       2728,2       1,6976       6,9675       0,68356      0,029581     202,78       13,508       0,051691
136,50       327,14       929,23       1,7905       574,16       2728,9       1,7029       6,9627       0,68354      0,029650     201,98       13,526       0,051587
137,00       331,88       928,79       1,8149       576,30       2729,5       1,7081       6,9579       0,68351      0,029719     201,19       13,543       0,051483
137,50       336,69       928,35       1,8395       578,45       2730,2       1,7133       6,9531       0,68348      0,029789     200,40       13,560       0,051379
138,00       341,54       927,91       1,8644       580,59       2730,8       1,7185       6,9483       0,68345      0,029859     199,62       13,578       0,051274
138,50       346,46       927,47       1,8896       582,73       2731,5       1,7237       6,9435       0,68342      0,029929     198,84       13,595       0,051170
139,00       351,43       927,02       1,9150       584,87       2732,1       1,7289       6,9388       0,68338      0,029999     198,07       13,612       0,051065
139,50       356,45       926,58       1,9408       587,02       2732,8       1,7340       6,9340       0,68334      0,030070     197,30       13,629       0,050961
140,00       361,54       926,13       1,9667       589,16       2733,4       1,7392       6,9293       0,68330      0,030140     196,54       13,647       0,050856
140,50       366,68       925,69       1,9930       591,31       2734,1       1,7444       6,9246       0,68326      0,030211     195,79       13,664       0,050751
141,00       371,89       925,24       2,0196       593,45       2734,7       1,7496       6,9199       0,68321      0,030282     195,04       13,681       0,050646
141,50       377,15       924,79       2,0464       595,60       2735,4       1,7547       6,9152       0,68317      0,030354     194,30       13,698       0,050541
142,00       382,47       924,34       2,0735       597,74       2736,0       1,7599       6,9105       0,68312      0,030425     193,56       13,716       0,050436
142,50       387,85       923,89       2,1009       599,89       2736,6       1,7650       6,9058       0,68306      0,030497     192,83       13,733       0,050331
143,00       393,29       923,44       2,1286       602,04       2737,3       1,7702       6,9011       0,68301      0,030569     192,10       13,750       0,050225
143,50       398,80       922,99       2,1566       604,19       2737,9       1,7753       6,8965       0,68296      0,030641     191,38       13,768       0,050120
144,00       404,37       922,54       2,1849       606,34       2738,5       1,7805       6,8919       0,68290      0,030713     190,66       13,785       0,050015
144,50       409,99       922,08       2,2135       608,49       2739,2       1,7856       6,8872       0,68284      0,030785     189,95       13,802       0,049909
145,00       415,68       921,62       2,2423       610,64       2739,8       1,7907       6,8826       0,68278      0,030858     189,25       13,819       0,049803
145,50       421,44       921,17       2,2715       612,79       2740,4       1,7959       6,8780       0,68271      0,030931     188,54       13,837       0,049697
146,00       427,26       920,71       2,3010       614,94       2741,0       1,8010       6,8734       0,68265      0,031004     187,85       13,854       0,049592
146,50       433,14       920,25       2,3308       617,09       2741,7       1,8061       6,8688       0,68258      0,031077     187,16       13,871       0,049486
147,00       439,09       919,79       2,3609       619,25       2742,3       1,8112       6,8643       0,68251      0,031151     186,47       13,888       0,049380
147,50       445,10       919,33       2,3913       621,40       2742,9       1,8163       6,8597       0,68244      0,031224     185,79       13,906       0,049273
148,00       451,18       918,87       2,4220       623,56       2743,5       1,8214       6,8552       0,68236      0,031298     185,12       13,923       0,049167
148,50       457,32       918,40       2,4531       625,71       2744,1       1,8265       6,8506       0,68228      0,031372     184,45       13,940       0,049061
149,00       463,54       917,94       2,4844       627,87       2744,7       1,8316       6,8461       0,68221      0,031446     183,78       13,957       0,048954
149,50       469,82       917,47       2,5161       630,02       2745,3       1,8367       6,8416       0,68213      0,031521     183,12       13,975       0,048848
150,00       476,16       917,01       2,5481       632,18       2745,9       1,8418       6,8371       0,68204      0,031595     182,46       13,992       0,048741
150,50       482,58       916,54       2,5804       634,34       2746,5       1,8469       6,8326       0,68196      0,031670     181,81       14,009       0,048635
151,00       489,07       916,07       2,6130       636,50       2747,1       1,8520       6,8281       0,68187      0,031745     181,16       14,026       0,048528
151,50       495,62       915,60       2,6460       638,65       2747,7       1,8570       6,8236       0,68178      0,031821     180,52       14,044       0,048421
152,00       502,25       915,13       2,6793       640,81       2748,3       1,8621       6,8192       0,68169      0,031896     179,88       14,061       0,048314
152,50       508,94       914,66       2,7130       642,98       2748,9       1,8672       6,8147       0,68160      0,031972     179,25       14,078       0,048207
153,00       515,71       914,19       2,7470       645,14       2749,5       1,8722       6,8103       0,68150      0,032048     178,62       14,095       0,048100
153,50       522,55       913,71       2,7813       647,30       2750,1       1,8773       6,8058       0,68141      0,032124     177,99       14,113       0,047993
154,00       529,46       913,24       2,8160       649,46       2750,7       1,8823       6,8014       0,68131      0,032200     177,37       14,130       0,047885
154,50       536,44       912,76       2,8510       651,63       2751,2       1,8874       6,7970       0,68120      0,032276     176,75       14,147       0,047778
155,00       543,50       912,28       2,8863       653,79       2751,8       1,8924       6,7926       0,68110      0,032353     176,14       14,164       0,047670
155,50       550,63       911,80       2,9220       655,95       2752,4       1,8974       6,7882       0,68100      0,032430     175,53       14,182       0,047563
156,00       557,84       911,33       2,9581       658,12       2753,0       1,9025       6,7838       0,68089      0,032507     174,93       14,199       0,047455
156,50       565,12       910,84       2,9945       660,29       2753,5       1,9075       6,7795       0,68078      0,032584     174,33       14,216       0,047347
157,00       572,47       910,36       3,0313       662,45       2754,1       1,9125       6,7751       0,68067      0,032662     173,73       14,233       0,047240
157,50       579,91       909,88       3,0684       664,62       2754,7       1,9175       6,7707       0,68055      0,032739     173,14       14,251       0,047132
158,00       587,42       909,40       3,1059       666,79       2755,2       1,9225       6,7664       0,68044      0,032817     172,55       14,268       0,047024
158,50       595,00       908,91       3,1438       668,96       2755,8       1,9276       6,7621       0,68032      0,032895     171,97       14,285       0,046916
159,00       602,67       908,42       3,1821       671,13       2756,3       1,9326       6,7578       0,68020      0,032974     171,39       14,302       0,046807
159,50       610,41       907,94       3,2207       673,30       2756,9       1,9376       6,7534       0,68008      0,033052     170,81       14,320       0,046699
160,00       618,23       907,45       3,2596       675,47       2757,4       1,9426       6,7491       0,67996      0,033131     170,24       14,337       0,046591
160,50       626,14       906,96       3,2990       677,65       2758,0       1,9476       6,7448       0,67983      0,033210     169,67       14,354       0,046482
161,00       634,12       906,47       3,3387       679,82       2758,5       1,9525       6,7406       0,67970      0,033289     169,11       14,371       0,046374
161,50       642,18       905,98       3,3789       681,99       2759,1       1,9575       6,7363       0,67957      0,033368     168,55       14,389       0,046265
162,00       650,33       905,49       3,4194       684,17       2759,6       1,9625       6,7320       0,67944      0,033448     167,99       14,406       0,046156
162,50       658,55       904,99       3,4603       686,34       2760,2       1,9675       6,7278       0,67931      0,033527     167,43       14,423       0,046048
163,00       666,86       904,50       3,5016       688,52       2760,7       1,9725       6,7235       0,67917      0,033607     166,88       14,440       0,045939
163,50       675,25       904,00       3,5432       690,70       2761,2       1,9774       6,7193       0,67903      0,033687     166,34       14,457       0,045830
164,00       683,73       903,50       3,5853       692,88       2761,8       1,9824       6,7150       0,67889      0,033768     165,80       14,475       0,045721
164,50       692,29       903,01       3,6278       695,06       2762,3       1,9873       6,7108       0,67875      0,033848     165,26       14,492       0,045612
165,00       700,93       902,51       3,6707       697,24       2762,8       1,9923       6,7066       0,67861      0,033929     164,72       14,509       0,045503
165,50       709,66       902,01       3,7139       699,42       2763,3       1,9973       6,7024       0,67846      0,034010     164,19       14,526       0,045393
166,00       718,48       901,50       3,7576       701,60       2763,9       2,0022       6,6982       0,67831      0,034091     163,66       14,544       0,045284
166,50       727,38       901,00       3,8017       703,78       2764,4       2,0072       6,6940       0,67816      0,034173     163,14       14,561       0,045174
167,00       736,38       900,50       3,8462       705,96       2764,9       2,0121       6,6898       0,67801      0,034254     162,61       14,578       0,045065
167,50       745,45       899,99       3,8912       708,15       2765,4       2,0170       6,6857       0,67785      0,034336     162,09       14,595       0,044955
168,00       754,62       899,49       3,9365       710,33       2765,9       2,0220       6,6815       0,67770      0,034418     161,58       14,612       0,044846
168,50       763,88       898,98       3,9823       712,52       2766,4       2,0269       6,6774       0,67754      0,034500     161,07       14,630       0,044736
169,00       773,22       898,47       4,0285       714,71       2766,9       2,0318       6,6732       0,67738      0,034583     160,56       14,647       0,044626
169,50       782,66       897,96       4,0751       716,90       2767,4       2,0367       6,6691       0,67721      0,034665     160,05       14,664       0,044516
170,00       792,19       897,45       4,1222       719,08       2767,9       2,0417       6,6650       0,67705      0,034748     159,55       14,681       0,044406
170,50       801,81       896,94       4,1697       721,27       2768,4       2,0466       6,6608       0,67688      0,034831     159,05       14,699       0,044296
171,00       811,52       896,43       4,2176       723,46       2768,9       2,0515       6,6567       0,67671      0,034914     158,56       14,716       0,044186
171,50       821,32       895,91       4,2660       725,66       2769,4       2,0564       6,6526       0,67654      0,034998     158,06       14,733       0,044076
172,00       831,22       895,40       4,3148       727,85       2769,9       2,0613       6,6485       0,67637      0,035081     157,57       14,750       0,043965
172,50       841,21       894,88       4,3641       730,04       2770,3       2,0662       6,6444       0,67620      0,035165     157,09       14,767       0,043855
173,00       851,30       894,36       4,4138       732,23       2770,8       2,0711       6,6404       0,67602      0,035249     156,60       14,785       0,043745
173,50       861,48       893,85       4,4640       734,43       2771,3       2,0760       6,6363       0,67584      0,035334     156,12       14,802       0,043634
174,00       871,76       893,33       4,5146       736,63       2771,8       2,0809       6,6322       0,67566      0,035418     155,65       14,819       0,043523
174,50       882,13       892,80       4,5657       738,82       2772,2       2,0857       6,6282       0,67547      0,035503     155,17       14,836       0,043413
175,00       892,60       892,28       4,6172       741,02       2772,7       2,0906       6,6241       0,67529      0,035588     154,70       14,853       0,043302
175,50       903,17       891,76       4,6692       743,22       2773,2       2,0955       6,6201       0,67510      0,035673     154,23       14,871       0,043191
176,00       913,84       891,24       4,7217       745,42       2773,6       2,1004       6,6161       0,67491      0,035758     153,76       14,888       0,043080
176,50       924,61       890,71       4,7747       747,62       2774,1       2,1053       6,6120       0,67472      0,035844     153,30       14,905       0,042969
177,00       935,47       890,18       4,8281       749,82       2774,5       2,1101       6,6080       0,67453      0,035930     152,84       14,922       0,042858
177,50       946,44       889,66       4,8820       752,03       2775,0       2,1150       6,6040       0,67433      0,036016     152,38       14,939       0,042747
178,00       957,51       889,13       4,9364       754,23       2775,4       2,1198       6,6000       0,67413      0,036102     151,93       14,957       0,042636
178,50       968,68       888,60       4,9913       756,43       2775,9       2,1247       6,5960       0,67393      0,036188     151,48       14,974       0,042525
179,00       979,95       888,07       5,0466       758,64       2776,3       2,1296       6,5920       0,67373      0,036275     151,03       14,991       0,042413
179,50       991,33       887,53       5,1025       760,85       2776,8       2,1344       6,5880       0,67353      0,036362     150,58       15,008       0,042302
180,00       1002,8       887,00       5,1588       763,05       2777,2       2,1392       6,5840       0,67332      0,036449     150,14       15,025       0,042190
180,50       1014,4       886,46       5,2157       765,26       2777,6       2,1441       6,5801       0,67311      0,036536     149,69       15,043       0,042079
181,00       1026,1       885,93       5,2730       767,47       2778,1       2,1489       6,5761       0,67290      0,036623     149,26       15,060       0,041967
181,50       1037,9       885,39       5,3309       769,68       2778,5       2,1538       6,5722       0,67269      0,036711     148,82       15,077       0,041855
182,00       1049,8       884,85       5,3893       771,90       2778,9       2,1586       6,5682       0,67248      0,036799     148,39       15,094       0,041743
182,50       1061,8       884,31       5,4482       774,11       2779,4       2,1634       6,5643       0,67226      0,036887     147,95       15,112       0,041632
183,00       1073,9       883,77       5,5076       776,32       2779,8       2,1683       6,5603       0,67204      0,036976     147,53       15,129       0,041520
183,50       1086,1       883,23       5,5675       778,54       2780,2       2,1731       6,5564       0,67182      0,037064     147,10       15,146       0,041408
184,00       1098,5       882,69       5,6279       780,75       2780,6       2,1779       6,5525       0,67160      0,037153     146,68       15,163       0,041296
184,50       1110,9       882,14       5,6889       782,97       2781,0       2,1827       6,5486       0,67137      0,037242     146,26       15,180       0,041183
185,00       1123,5       881,60       5,7504       785,19       2781,4       2,1875       6,5447       0,67114      0,037331     145,84       15,198       0,041071
185,50       1136,1       881,05       5,8124       787,41       2781,8       2,1923       6,5408       0,67091      0,037421     145,42       15,215       0,040959
186,00       1148,9       880,50       5,8750       789,63       2782,2       2,1971       6,5369       0,67068      0,037510     145,01       15,232       0,040847
186,50       1161,8       879,95       5,9381       791,85       2782,6       2,2019       6,5330       0,67045      0,037600     144,60       15,249       0,040734
187,00       1174,8       879,40       6,0018       794,07       2783,0       2,2067       6,5291       0,67021      0,037690     144,19       15,266       0,040622
187,50       1187,9       878,85       6,0660       796,30       2783,4       2,2115       6,5252       0,66998      0,037781     143,78       15,284       0,040509
188,00       1201,1       878,30       6,1308       798,52       2783,8       2,2163       6,5213       0,66974      0,037871     143,38       15,301       0,040397
188,50       1214,5       877,75       6,1961       800,75       2784,2       2,2211       6,5175       0,66949      0,037962     142,97       15,318       0,040284
189,00       1228,0       877,19       6,2620       802,97       2784,5       2,2259       6,5136       0,66925      0,038053     142,57       15,335       0,040171
189,50       1241,5       876,63       6,3284       805,20       2784,9       2,2307       6,5098       0,66900      0,038144     142,18       15,353       0,040058
190,00       1255,2       876,08       6,3954       807,43       2785,3       2,2355       6,5059       0,66875      0,038236     141,78       15,370       0,039945
190,50       1269,1       875,52       6,4630       809,66       2785,7       2,2403       6,5021       0,66850      0,038327     141,39       15,387       0,039832
191,00       1283,0       874,96       6,5312       811,89       2786,0       2,2450       6,4982       0,66825      0,038419     141,00       15,404       0,039719
191,50       1297,0       874,40       6,5999       814,13       2786,4       2,2498       6,4944       0,66799      0,038511     140,61       15,421       0,039606
192,00       1311,2       873,83       6,6692       816,36       2786,7       2,2546       6,4906       0,66774      0,038604     140,22       15,439       0,039493
192,50       1325,5       873,27       6,7391       818,60       2787,1       2,2594       6,4868       0,66748      0,038696     139,84       15,456       0,039380
193,00       1339,9       872,70       6,8096       820,83       2787,4       2,2641       6,4830       0,66721      0,038789     139,46       15,473       0,039267
193,50       1354,5       872,14       6,8807       823,07       2787,8       2,2689       6,4792       0,66695      0,038882     139,08       15,490       0,039153
194,00       1369,1       871,57       6,9524       825,31       2788,1       2,2736       6,4754       0,66668      0,038975     138,70       15,508       0,039040
194,50       1383,9       871,00       7,0247       827,55       2788,5       2,2784       6,4716       0,66642      0,039069     138,32       15,525       0,038927
195,00       1398,8       870,43       7,0976       829,79       2788,8       2,2832       6,4678       0,66614      0,039163     137,95       15,542       0,038813
195,50       1413,9       869,86       7,1711       832,03       2789,2       2,2879       6,4640       0,66587      0,039257     137,58       15,559       0,038699
196,00       1429,0       869,29       7,2453       834,28       2789,5       2,2926       6,4602       0,66560      0,039351     137,21       15,577       0,038586
196,50       1444,3       868,71       7,3200       836,52       2789,8       2,2974       6,4564       0,66532      0,039445     136,84       15,594       0,038472
197,00       1459,7       868,14       7,3954       838,77       2790,1       2,3021       6,4527       0,66504      0,039540     136,47       15,611       0,038358
197,50       1475,3       867,56       7,4714       841,02       2790,5       2,3069       6,4489       0,66476      0,039635     136,11       15,628       0,038245
198,00       1490,9       866,98       7,5480       843,26       2790,8       2,3116       6,4451       0,66447      0,039730     135,75       15,646       0,038131
198,50       1506,7       866,40       7,6253       845,51       2791,1       2,3163       6,4414       0,66419      0,039825     135,39       15,663       0,038017
199,00       1522,7       865,82       7,7032       847,76       2791,4       2,3211       6,4376       0,66390      0,039921     135,03       15,680       0,037903
199,50       1538,7       865,24       7,7818       850,02       2791,7       2,3258       6,4339       0,66361      0,040017     134,67       15,698       0,037789
200,00       1554,9       864,66       7,8610       852,27       2792,0       2,3305       6,4302       0,66331      0,040113     134,32       15,715       0,037675
200,50       1571,3       864,07       7,9409       854,53       2792,3       2,3353       6,4264       0,66302      0,040209     133,97       15,732       0,037560
201,00       1587,7       863,49       8,0214       856,78       2792,6       2,3400       6,4227       0,66272      0,040306     133,61       15,749       0,037446
201,50       1604,3       862,90       8,1026       859,04       2792,9       2,3447       6,4190       0,66242      0,040403     133,27       15,767       0,037332
202,00       1621,0       862,31       8,1844       861,30       2793,2       2,3494       6,4152       0,66212      0,040500     132,92       15,784       0,037217
202,50       1637,9       861,72       8,2669       863,56       2793,5       2,3541       6,4115       0,66181      0,040597     132,57       15,801       0,037103
203,00       1654,9       861,13       8,3501       865,82       2793,7       2,3588       6,4078       0,66151      0,040695     132,23       15,819       0,036989
203,50       1672,0       860,54       8,4340       868,08       2794,0       2,3635       6,4041       0,66120      0,040793     131,89       15,836       0,036874
204,00       1689,3       859,95       8,5186       870,35       2794,3       2,3683       6,4004       0,66089      0,040891     131,55       15,853       0,036760
204,50       1706,7       859,35       8,6038       872,62       2794,6       2,3730       6,3967       0,66057      0,040989     131,21       15,870       0,036645
205,00       1724,3       858,76       8,6898       874,88       2794,8       2,3777       6,3930       0,66026      0,041088     130,87       15,888       0,036530
205,50       1742,0       858,16       8,7764       877,15       2795,1       2,3824       6,3893       0,65994      0,041187     130,54       15,905       0,036415
206,00       1759,8       857,56       8,8638       879,42       2795,3       2,3871       6,3856       0,65962      0,041286     130,21       15,922       0,036301
206,50       1777,8       856,96       8,9518       881,69       2795,6       2,3917       6,3820       0,65929      0,041385     129,88       15,940       0,036186
207,00       1795,9       856,36       9,0406       883,96       2795,9       2,3964       6,3783       0,65897      0,041485     129,55       15,957       0,036071
207,50       1814,2       855,75       9,1301       886,24       2796,1       2,4011       6,3746       0,65864      0,041584     129,22       15,975       0,035956
208,00       1832,6       855,15       9,2203       888,51       2796,3       2,4058       6,3710       0,65831      0,041685     128,89       15,992       0,035841
208,50       1851,1       854,54       9,3112       890,79       2796,6       2,4105       6,3673       0,65798      0,041785     128,57       16,009       0,035726
209,00       1869,8       853,94       9,4029       893,07       2796,8       2,4152       6,3636       0,65764      0,041886     128,24       16,027       0,035611
209,50       1888,7       853,33       9,4953       895,35       2797,0       2,4199       6,3600       0,65731      0,041987     127,92       16,044       0,035496
210,00       1907,7       852,72       9,5885       897,63       2797,3       2,4245       6,3563       0,65697      0,042088     127,60       16,061       0,035381
210,50       1926,8       852,11       9,6824       899,91       2797,5       2,4292       6,3527       0,65662      0,042189     127,28       16,079       0,035265
211,00       1946,1       851,49       9,7770       902,20       2797,7       2,4339       6,3490       0,65628      0,042291     126,97       16,096       0,035150
211,50       1965,5       850,88       9,8724       904,48       2797,9       2,4386       6,3454       0,65593      0,042393     126,65       16,114       0,035035
212,00       1985,1       850,26       9,9686       906,77       2798,1       2,4432       6,3417       0,65558      0,042495     126,34       16,131       0,034919
212,50       2004,9       849,65       10,066       909,06       2798,3       2,4479       6,3381       0,65523      0,042598     126,03       16,148       0,034804
213,00       2024,7       849,03       10,163       911,35       2798,5       2,4526       6,3345       0,65488      0,042700     125,72       16,166       0,034688
213,50       2044,8       848,41       10,262       913,64       2798,7       2,4572       6,3309       0,65452      0,042804     125,41       16,183       0,034573
214,00       2065,0       847,79       10,361       915,94       2798,9       2,4619       6,3272       0,65416      0,042907     125,10       16,201       0,034457
214,50       2085,3       847,16       10,461       918,23       2799,1       2,4665       6,3236       0,65380      0,043011     124,79       16,218       0,034342
215,00       2105,8       846,54       10,562       920,53       2799,3       2,4712       6,3200       0,65343      0,043114     124,49       16,236       0,034226
215,50       2126,5       845,92       10,664       922,83       2799,5       2,4759       6,3164       0,65307      0,043219     124,18       16,253       0,034110
216,00       2147,3       845,29       10,766       925,12       2799,7       2,4805       6,3128       0,65270      0,043323     123,88       16,271       0,033994
216,50       2168,3       844,66       10,869       927,43       2799,8       2,4852       6,3092       0,65233      0,043428     123,58       16,288       0,033879
217,00       2189,4       844,03       10,973       929,73       2800,0       2,4898       6,3056       0,65195      0,043533     123,28       16,306       0,033763
217,50       2210,7       843,40       11,078       932,03       2800,2       2,4945       6,3020       0,65157      0,043638     122,98       16,323       0,033647
218,00       2232,2       842,77       11,184       934,34       2800,3       2,4991       6,2984       0,65119      0,043744     122,69       16,341       0,033531
218,50       2253,8       842,13       11,291       936,65       2800,5       2,5038       6,2948       0,65081      0,043850     122,39       16,358       0,033415
219,00       2275,6       841,50       11,398       938,96       2800,7       2,5084       6,2912       0,65043      0,043956     122,10       16,376       0,033299
219,50       2297,5       840,86       11,506       941,27       2800,8       2,5130       6,2876       0,65004      0,044063     121,81       16,393       0,033183
220,00       2319,6       840,22       11,615       943,58       2800,9       2,5177       6,2840       0,64965      0,044170     121,52       16,411       0,033067
220,50       2341,8       839,58       11,725       945,89       2801,1       2,5223       6,2804       0,64926      0,044277     121,23       16,428       0,032950
221,00       2364,3       838,94       11,836       948,21       2801,2       2,5269       6,2768       0,64886      0,044384     120,94       16,446       0,032834
221,50       2386,9       838,29       11,948       950,53       2801,4       2,5316       6,2733       0,64847      0,044492     120,65       16,464       0,032718
222,00       2409,6       837,65       12,060       952,85       2801,5       2,5362       6,2697       0,64807      0,044600     120,37       16,481       0,032602
222,50       2432,6       837,00       12,174       955,17       2801,6       2,5408       6,2661       0,64766      0,044709     120,08       16,499       0,032485
223,00       2455,6       836,35       12,288       957,49       2801,7       2,5455       6,2625       0,64726      0,044818     119,80       16,516       0,032369
223,50       2478,9       835,70       12,403       959,81       2801,8       2,5501       6,2590       0,64685      0,044927     119,52       16,534       0,032253
224,00       2502,3       835,05       12,520       962,14       2801,9       2,5547       6,2554       0,64644      0,045036     119,24       16,552       0,032136
224,50       2525,9       834,40       12,637       964,47       2802,0       2,5593       6,2519       0,64603      0,045146     118,96       16,569       0,032020
225,00       2549,7       833,75       12,755       966,80       2802,1       2,5640       6,2483       0,64561      0,045256     118,68       16,587       0,031903
225,50       2573,7       833,09       12,873       969,13       2802,2       2,5686       6,2447       0,64519      0,045366     118,40       16,605       0,031787
226,00       2597,8       832,43       12,993       971,46       2802,3       2,5732       6,2412       0,64477      0,045477     118,13       16,622       0,031670
226,50       2622,1       831,78       13,114       973,80       2802,4       2,5778       6,2376       0,64435      0,045588     117,85       16,640       0,031554
227,00       2646,6       831,12       13,235       976,13       2802,5       2,5824       6,2341       0,64392      0,045699     117,58       16,658       0,031437
227,50       2671,2       830,45       13,358       978,47       2802,6       2,5870       6,2305       0,64349      0,045811     117,31       16,676       0,031320
228,00       2696,0       829,79       13,482       980,81       2802,7       2,5917       6,2270       0,64306      0,045923     117,03       16,693       0,031204
228,50       2721,0       829,12       13,606       983,15       2802,7       2,5963       6,2234       0,64263      0,046036     116,76       16,711       0,031087
229,00       2746,2       828,46       13,732       985,50       2802,8       2,6009       6,2199       0,64219      0,046149     116,50       16,729       0,030970
229,50       2771,6       827,79       13,858       987,84       2802,8       2,6055       6,2163       0,64175      0,046262     116,23       16,747       0,030853
230,00       2797,1       827,12       13,985       990,19       2802,9       2,6101       6,2128       0,64131      0,046375     115,96       16,765       0,030736
230,50       2822,8       826,45       14,114       992,54       2802,9       2,6147       6,2093       0,64086      0,046489     115,70       16,782       0,030620
231,00       2848,7       825,77       14,243       994,89       2803,0       2,6193       6,2057       0,64041      0,046603     115,43       16,800       0,030503
231,50       2874,8       825,10       14,373       997,24       2803,0       2,6239       6,2022       0,63996      0,046718     115,17       16,818       0,030386
232,00       2901,0       824,42       14,505       999,60       2803,1       2,6285       6,1987       0,63951      0,046833     114,91       16,836       0,030269
232,50       2927,5       823,74       14,637       1002,0       2803,1       2,6331       6,1951       0,63905      0,046949     114,64       16,854       0,030152
233,00       2954,1       823,06       14,771       1004,3       2803,1       2,6377       6,1916       0,63859      0,047064     114,38       16,872       0,030035
233,50       2980,9       822,38       14,905       1006,7       2803,1       2,6423       6,1881       0,63813      0,047180     114,13       16,890       0,029918
234,00       3008,0       821,70       15,040       1009,0       2803,2       2,6469       6,1845       0,63766      0,047297     113,87       16,908       0,029801
234,50       3035,1       821,01       15,177       1011,4       2803,2       2,6515       6,1810       0,63719      0,047414     113,61       16,926       0,029684
235,00       3062,5       820,33       15,314       1013,8       2803,2       2,6561       6,1775       0,63672      0,047531     113,36       16,944       0,029566
235,50       3090,1       819,64       15,453       1016,1       2803,2       2,6607       6,1740       0,63625      0,047649     113,10       16,962       0,029449
236,00       3117,9       818,95       15,593       1018,5       2803,2       2,6653       6,1704       0,63577      0,047767     112,85       16,980       0,029332
236,50       3145,8       818,26       15,733       1020,9       2803,2       2,6699       6,1669       0,63529      0,047886     112,59       16,998       0,029215
237,00       3174,0       817,56       15,875       1023,3       2803,1       2,6745       6,1634       0,63481      0,048005     112,34       17,016       0,029098
237,50       3202,3       816,87       16,018       1025,6       2803,1       2,6790       6,1599       0,63432      0,048124     112,09       17,034       0,028980
238,00       3230,8       816,17       16,162       1028,0       2803,1       2,6836       6,1564       0,63383      0,048244     111,84       17,052       0,028863
238,50       3259,6       815,47       16,307       1030,4       2803,1       2,6882       6,1529       0,63334      0,048364     111,59       17,070       0,028746
239,00       3288,5       814,77       16,453       1032,8       2803,0       2,6928       6,1493       0,63285      0,048485     111,34       17,089       0,028628
239,50       3317,6       814,07       16,601       1035,2       2803,0       2,6974       6,1458       0,63235      0,048606     111,10       17,107       0,028511
240,00       3346,9       813,37       16,749       1037,6       2803,0       2,7020       6,1423       0,63185      0,048728     110,85       17,125       0,028394
240,50       3376,4       812,66       16,899       1039,9       2802,9       2,7066       6,1388       0,63135      0,048850     110,61       17,143       0,028276
241,00       3406,2       811,95       17,049       1042,3       2802,9       2,7111       6,1353       0,63084      0,048973     110,36       17,161       0,028159
241,50       3436,1       811,24       17,201       1044,7       2802,8       2,7157       6,1318       0,63033      0,049096     110,12       17,180       0,028042
242,00       3466,2       810,53       17,354       1047,1       2802,7       2,7203       6,1282       0,62982      0,049219     109,88       17,198       0,027924
242,50       3496,5       809,82       17,508       1049,5       2802,7       2,7249       6,1247       0,62930      0,049343     109,63       17,216       0,027807
243,00       3527,0       809,10       17,664       1051,9       2802,6       2,7295       6,1212       0,62878      0,049467     109,39       17,235       0,027689
243,50       3557,8       808,39       17,820       1054,3       2802,5       2,7340       6,1177       0,62826      0,049592     109,15       17,253       0,027572
244,00       3588,7       807,67       17,978       1056,7       2802,4       2,7386       6,1142       0,62773      0,049718     108,92       17,272       0,027454
244,50       3619,8       806,95       18,137       1059,1       2802,3       2,7432       6,1107       0,62721      0,049843     108,68       17,290       0,027337
245,00       3651,2       806,22       18,297       1061,5       2802,2       2,7478       6,1072       0,62668      0,049970     108,44       17,308       0,027219
245,50       3682,7       805,50       18,458       1064,0       2802,1       2,7524       6,1037       0,62614      0,050097     108,20       17,327       0,027102
246,00       3714,5       804,77       18,621       1066,4       2802,0       2,7569       6,1002       0,62560      0,050224     107,97       17,345       0,026984
246,50       3746,4       804,05       18,785       1068,8       2801,9       2,7615       6,0966       0,62506      0,050352     107,73       17,364       0,026866
247,00       3778,6       803,32       18,950       1071,2       2801,8       2,7661       6,0931       0,62452      0,050481     107,50       17,383       0,026749
247,50       3811,0       802,58       19,116       1073,6       2801,6       2,7707       6,0896       0,62397      0,050610     107,27       17,401       0,026631
248,00       3843,6       801,85       19,284       1076,1       2801,5       2,7752       6,0861       0,62342      0,050739     107,03       17,420       0,026514
248,50       3876,4       801,11       19,453       1078,5       2801,4       2,7798       6,0826       0,62287      0,050869     106,80       17,438       0,026396
249,00       3909,5       800,38       19,623       1080,9       2801,2       2,7844       6,0791       0,62231      0,051000     106,57       17,457       0,026278
249,50       3942,7       799,64       19,794       1083,3       2801,1       2,7890       6,0756       0,62175      0,051131     106,34       17,476       0,026161
250,00       3976,2       798,89       19,967       1085,8       2800,9       2,7935       6,0721       0,62119      0,051263     106,11       17,495       0,026043
250,50       4009,9       798,15       20,141       1088,2       2800,8       2,7981       6,0685       0,62062      0,051395     105,88       17,513       0,025925
251,00       4043,8       797,40       20,316       1090,6       2800,6       2,8027       6,0650       0,62006      0,051528     105,66       17,532       0,025808
251,50       4077,9       796,66       20,493       1093,1       2800,4       2,8072       6,0615       0,61948      0,051662     105,43       17,551       0,025690
252,00       4112,2       795,91       20,671       1095,5       2800,3       2,8118       6,0580       0,61891      0,051796     105,20       17,570       0,025572
252,50       4146,8       795,16       20,850       1098,0       2800,1       2,8164       6,0545       0,61833      0,051931     104,98       17,589       0,025455
253,00       4181,5       794,40       21,031       1100,4       2799,9       2,8210       6,0510       0,61775      0,052066     104,75       17,608       0,025337
253,50       4216,5       793,65       21,213       1102,9       2799,7       2,8255       6,0474       0,61716      0,052202     104,53       17,627       0,025219
254,00       4251,8       792,89       21,397       1105,3       2799,5       2,8301       6,0439       0,61657      0,052339     104,31       17,646       0,025101
254,50       4287,2       792,13       21,582       1107,8       2799,3       2,8347       6,0404       0,61598      0,052476     104,08       17,665       0,024984
255,00       4322,9       791,37       21,768       1110,2       2799,1       2,8392       6,0369       0,61538      0,052614     103,86       17,684       0,024866
255,50       4358,8       790,60       21,956       1112,7       2798,9       2,8438       6,0334       0,61478      0,052753     103,64       17,703       0,024748
256,00       4394,9       789,83       22,145       1115,2       2798,6       2,8484       6,0298       0,61418      0,052892     103,42       17,722       0,024631
256,50       4431,3       789,07       22,336       1117,6       2798,4       2,8529       6,0263       0,61358      0,053032     103,20       17,741       0,024513
257,00       4467,9       788,30       22,528       1120,1       2798,2       2,8575       6,0228       0,61297      0,053173     102,98       17,761       0,024395
257,50       4504,7       787,52       22,722       1122,6       2797,9       2,8621       6,0193       0,61235      0,053314     102,76       17,780       0,024277
258,00       4541,7       786,75       22,917       1125,0       2797,7       2,8667       6,0157       0,61174      0,053456     102,55       17,799       0,024160
258,50       4579,0       785,97       23,113       1127,5       2797,4       2,8712       6,0122       0,61112      0,053599     102,33       17,819       0,024042
259,00       4616,5       785,19       23,311       1130,0       2797,1       2,8758       6,0087       0,61050      0,053743     102,11       17,838       0,023924
259,50       4654,3       784,41       23,511       1132,5       2796,9       2,8804       6,0051       0,60987      0,053887     101,90       17,857       0,023807
260,00       4692,3       783,63       23,712       1135,0       2796,6       2,8849       6,0016       0,60924      0,054032     101,68       17,877       0,023689
260,50       4730,5       782,84       23,914       1137,4       2796,3       2,8895       5,9981       0,60861      0,054178     101,47       17,896       0,023571
261,00       4768,9       782,05       24,118       1139,9       2796,0       2,8941       5,9945       0,60797      0,054324     101,25       17,916       0,023453
261,50       4807,6       781,26       24,324       1142,4       2795,7       2,8987       5,9910       0,60733      0,054472     101,04       17,936       0,023336
262,00       4846,6       780,47       24,531       1144,9       2795,4       2,9032       5,9874       0,60669      0,054620     100,83       17,955       0,023218
262,50       4885,8       779,67       24,740       1147,4       2795,1       2,9078       5,9839       0,60604      0,054769     100,61       17,975       0,023100
263,00       4925,2       778,88       24,951       1149,9       2794,8       2,9124       5,9804       0,60539      0,054919     100,40       17,995       0,022983
263,50       4964,8       778,08       25,163       1152,4       2794,5       2,9170       5,9768       0,60473      0,055070     100,19       18,015       0,022865
264,00       5004,7       777,27       25,377       1154,9       2794,2       2,9215       5,9732       0,60408      0,055221     99,981       18,034       0,022747
264,50       5044,9       776,47       25,592       1157,4       2793,8       2,9261       5,9697       0,60342      0,055374     99,771       18,054       0,022630
265,00       5085,3       775,66       25,809       1160,0       2793,5       2,9307       5,9661       0,60275      0,055527     99,561       18,074       0,022512
265,50       5125,9       774,85       26,028       1162,5       2793,1       2,9353       5,9626       0,60208      0,055681     99,353       18,094       0,022395
266,00       5166,8       774,04       26,248       1165,0       2792,8       2,9398       5,9590       0,60141      0,055836     99,144       18,114       0,022277
266,50       5208,0       773,23       26,470       1167,5       2792,4       2,9444       5,9555       0,60074      0,055992     98,937       18,134       0,022159
267,00       5249,4       772,41       26,694       1170,0       2792,1       2,9490       5,9519       0,60006      0,056149     98,729       18,155       0,022042
267,50       5291,0       771,59       26,919       1172,6       2791,7       2,9536       5,9483       0,59938      0,056307     98,523       18,175       0,021924
268,00       5332,9       770,77       27,147       1175,1       2791,3       2,9582       5,9447       0,59869      0,056466     98,317       18,195       0,021807
268,50       5375,0       769,95       27,376       1177,6       2790,9       2,9627       5,9412       0,59800      0,056626     98,111       18,215       0,021689
269,00       5417,4       769,12       27,606       1180,2       2790,5       2,9673       5,9376       0,59731      0,056787     97,906       18,236       0,021572
269,50       5460,1       768,29       27,839       1182,7       2790,1       2,9719       5,9340       0,59661      0,056948     97,701       18,256       0,021454
270,00       5503,0       767,46       28,073       1185,3       2789,7       2,9765       5,9304       0,59591      0,057111     97,497       18,277       0,021337
270,50       5546,2       766,63       28,310       1187,8       2789,3       2,9811       5,9268       0,59521      0,057275     97,293       18,297       0,021219
271,00       5589,6       765,79       28,548       1190,4       2788,8       2,9857       5,9232       0,59450      0,057440     97,090       18,318       0,021102
271,50       5633,3       764,95       28,787       1192,9       2788,4       2,9903       5,9196       0,59379      0,057606     96,887       18,338       0,020985
272,00       5677,2       764,11       29,029       1195,5       2788,0       2,9948       5,9160       0,59307      0,057774     96,685       18,359       0,020867
272,50       5721,4       763,27       29,273       1198,0       2787,5       2,9994       5,9124       0,59235      0,057942     96,483       18,380       0,020750
273,00       5765,9       762,42       29,518       1200,6       2787,1       3,0040       5,9088       0,59163      0,058111     96,282       18,401       0,020632
273,50       5810,6       761,57       29,766       1203,2       2786,6       3,0086       5,9052       0,59091      0,058282     96,081       18,422       0,020515
274,00       5855,6       760,72       30,015       1205,7       2786,1       3,0132       5,9016       0,59018      0,058454     95,880       18,443       0,020398
274,50       5900,9       759,86       30,266       1208,3       2785,7       3,0178       5,8980       0,58945      0,058627     95,680       18,464       0,020281
275,00       5946,4       759,00       30,520       1210,9       2785,2       3,0224       5,8944       0,58871      0,058801     95,481       18,485       0,020163
275,50       5992,2       758,14       30,775       1213,5       2784,7       3,0270       5,8907       0,58797      0,058976     95,282       18,506       0,020046
276,00       6038,3       757,28       31,032       1216,1       2784,2       3,0316       5,8871       0,58723      0,059153     95,083       18,527       0,019929
276,50       6084,6       756,42       31,291       1218,7       2783,7       3,0362       5,8835       0,58648      0,059331     94,884       18,548       0,019812
277,00       6131,2       755,55       31,553       1221,3       2783,1       3,0408       5,8798       0,58573      0,059510     94,686       18,570       0,019695
277,50       6178,1       754,68       31,816       1223,8       2782,6       3,0454       5,8762       0,58497      0,059691     94,489       18,591       0,019578
278,00       6225,2       753,80       32,082       1226,4       2782,1       3,0500       5,8725       0,58422      0,059873     94,292       18,613       0,019461
278,50       6272,6       752,92       32,349       1229,1       2781,5       3,0546       5,8689       0,58345      0,060056     94,095       18,634       0,019344
279,00       6320,3       752,04       32,619       1231,7       2781,0       3,0592       5,8652       0,58269      0,060240     93,898       18,656       0,019227
279,50       6368,3       751,16       32,891       1234,3       2780,4       3,0638       5,8616       0,58192      0,060426     93,702       18,678       0,019110
280,00       6416,6       750,28       33,165       1236,9       2779,9       3,0685       5,8579       0,58115      0,060614     93,506       18,700       0,018993
280,50       6465,1       749,39       33,441       1239,5       2779,3       3,0731       5,8542       0,58037      0,060803     93,311       18,722       0,018876
281,00       6513,9       748,49       33,719       1242,1       2778,7       3,0777       5,8506       0,57959      0,060993     93,116       18,743       0,018759
281,50       6563,0       747,60       34,000       1244,8       2778,1       3,0823       5,8469       0,57881      0,061185     92,921       18,766       0,018642
282,00       6612,4       746,70       34,283       1247,4       2777,5       3,0869       5,8432       0,57802      0,061379     92,727       18,788       0,018526
282,50       6662,1       745,80       34,568       1250,0       2776,9       3,0916       5,8395       0,57723      0,061574     92,533       18,810       0,018409
283,00       6712,0       744,90       34,855       1252,7       2776,3       3,0962       5,8358       0,57644      0,061771     92,339       18,832       0,018292
283,50       6762,2       743,99       35,145       1255,3       2775,7       3,1008       5,8321       0,57564      0,061969     92,146       18,855       0,018176
284,00       6812,8       743,08       35,437       1257,9       2775,0       3,1054       5,8284       0,57484      0,062169     91,953       18,877       0,018059
284,50       6863,6       742,17       35,731       1260,6       2774,4       3,1101       5,8247       0,57404      0,062370     91,760       18,900       0,017943
285,00       6914,7       741,25       36,028       1263,2       2773,7       3,1147       5,8209       0,57323      0,062574     91,567       18,922       0,017826
285,50       6966,0       740,33       36,327       1265,9       2773,1       3,1193       5,8172       0,57242      0,062779     91,375       18,945       0,017710
286,00       7017,7       739,41       36,629       1268,6       2772,4       3,1240       5,8135       0,57160      0,062986     91,183       18,968       0,017593
286,50       7069,7       738,48       36,933       1271,2       2771,7       3,1286       5,8097       0,57078      0,063194     90,991       18,991       0,017477
287,00       7122,0       737,55       37,239       1273,9       2771,0       3,1333       5,8060       0,56996      0,063405     90,800       19,014       0,017361
287,50       7174,5       736,62       37,548       1276,6       2770,3       3,1379       5,8022       0,56914      0,063617     90,609       19,037       0,017245
288,00       7227,4       735,68       37,860       1279,3       2769,6       3,1426       5,7985       0,56831      0,063831     90,418       19,060       0,017128
288,50       7280,5       734,74       38,174       1282,0       2768,9       3,1472       5,7947       0,56747      0,064048     90,227       19,084       0,017012
289,00       7334,0       733,80       38,490       1284,6       2768,2       3,1519       5,7909       0,56664      0,064266     90,037       19,107       0,016896
289,50       7387,7       732,85       38,810       1287,3       2767,4       3,1565       5,7871       0,56580      0,064486     89,847       19,130       0,016780
290,00       7441,8       731,91       39,132       1290,0       2766,7       3,1612       5,7834       0,56496      0,064708     89,657       19,154       0,016664
290,50       7496,1       730,95       39,456       1292,7       2765,9       3,1659       5,7796       0,56411      0,064933     89,467       19,178       0,016548
291,00       7550,8       730,00       39,783       1295,4       2765,2       3,1705       5,7758       0,56326      0,065159     89,278       19,202       0,016433
291,50       7605,8       729,04       40,113       1298,2       2764,4       3,1752       5,7719       0,56241      0,065388     89,088       19,226       0,016317
292,00       7661,0       728,07       40,446       1300,9       2763,6       3,1799       5,7681       0,56155      0,065618     88,899       19,250       0,016201
292,50       7716,6       727,10       40,781       1303,6       2762,8       3,1846       5,7643       0,56069      0,065852     88,711       19,274       0,016086
293,00       7772,5       726,13       41,120       1306,3       2762,0       3,1892       5,7605       0,55983      0,066087     88,522       19,298       0,015970
293,50       7828,7       725,16       41,461       1309,0       2761,2       3,1939       5,7566       0,55897      0,066325     88,333       19,323       0,015855
294,00       7885,2       724,18       41,805       1311,8       2760,4       3,1986       5,7528       0,55810      0,066565     88,145       19,347       0,015739
294,50       7942,0       723,20       42,152       1314,5       2759,5       3,2033       5,7489       0,55722      0,066807     87,957       19,372       0,015624
295,00       7999,1       722,21       42,501       1317,3       2758,7       3,2080       5,7451       0,55635      0,067052     87,769       19,396       0,015508
295,50       8056,6       721,22       42,854       1320,0       2757,8       3,2127       5,7412       0,55547      0,067300     87,581       19,421       0,015393
296,00       8114,3       720,23       43,210       1322,8       2757,0       3,2174       5,7373       0,55459      0,067550     87,393       19,446       0,015278
296,50       8172,4       719,23       43,569       1325,5       2756,1       3,2221       5,7334       0,55370      0,067803     87,206       19,471       0,015163
297,00       8230,8       718,23       43,931       1328,3       2755,2       3,2268       5,7295       0,55282      0,068058     87,018       19,497       0,015048
297,50       8289,5       717,22       44,295       1331,1       2754,3       3,2315       5,7256       0,55193      0,068316     86,831       19,522       0,014933
298,00       8348,5       716,21       44,664       1333,8       2753,4       3,2362       5,7217       0,55103      0,068577     86,644       19,548       0,014818
298,50       8407,9       715,20       45,035       1336,6       2752,5       3,2410       5,7177       0,55013      0,068841     86,457       19,573       0,014703
299,00       8467,6       714,18       45,409       1339,4       2751,5       3,2457       5,7138       0,54923      0,069108     86,270       19,599       0,014589
299,50       8527,6       713,16       45,787       1342,2       2750,6       3,2504       5,7098       0,54833      0,069377     86,083       19,625       0,014474
300,00       8587,9       712,14       46,168       1345,0       2749,6       3,2552       5,7059       0,54743      0,069650     85,896       19,651       0,014360
300,50       8648,6       711,11       46,552       1347,8       2748,7       3,2599       5,7019       0,54652      0,069925     85,709       19,677       0,014245
301,00       8709,5       710,07       46,940       1350,6       2747,7       3,2647       5,6979       0,54560      0,070204     85,523       19,704       0,014131
301,50       8770,9       709,03       47,331       1353,4       2746,7       3,2694       5,6939       0,54469      0,070486     85,336       19,730       0,014017
302,00       8832,5       707,99       47,725       1356,3       2745,7       3,2742       5,6899       0,54377      0,070771     85,150       19,757       0,013902
302,50       8894,5       706,94       48,123       1359,1       2744,7       3,2789       5,6859       0,54285      0,071060     84,963       19,784       0,013788
303,00       8956,8       705,89       48,525       1361,9       2743,7       3,2837       5,6819       0,54193      0,071352     84,777       19,811       0,013674
303,50       9019,5       704,83       48,930       1364,8       2742,6       3,2885       5,6779       0,54100      0,071647     84,591       19,838       0,013560
304,00       9082,4       703,77       49,338       1367,6       2741,6       3,2932       5,6738       0,54008      0,071946     84,404       19,865       0,013447
304,50       9145,8       702,71       49,751       1370,4       2740,5       3,2980       5,6698       0,53915      0,072249     84,218       19,893       0,013333
305,00       9209,4       701,64       50,167       1373,3       2739,4       3,3028       5,6657       0,53821      0,072555     84,032       19,921       0,013219
305,50       9273,4       700,56       50,587       1376,2       2738,3       3,3076       5,6616       0,53728      0,072865     83,845       19,948       0,013106
306,00       9337,8       699,48       51,010       1379,0       2737,2       3,3124       5,6575       0,53634      0,073178     83,659       19,976       0,012992
306,50       9402,5       698,40       51,438       1381,9       2736,1       3,3172       5,6534       0,53540      0,073496     83,473       20,005       0,012879
307,00       9467,5       697,31       51,869       1384,8       2735,0       3,3220       5,6493       0,53445      0,073818     83,286       20,033       0,012766
307,50       9532,9       696,22       52,304       1387,7       2733,9       3,3268       5,6452       0,53351      0,074143     83,100       20,062       0,012653
308,00       9598,6       695,12       52,743       1390,6       2732,7       3,3316       5,6411       0,53256      0,074473     82,914       20,090       0,012540
308,50       9664,7       694,01       53,187       1393,5       2731,5       3,3364       5,6369       0,53161      0,074807     82,727       20,119       0,012427
309,00       9731,1       692,90       53,634       1396,4       2730,4       3,3413       5,6327       0,53066      0,075146     82,541       20,148       0,012314
309,50       9797,9       691,79       54,086       1399,3       2729,2       3,3461       5,6286       0,52970      0,075489     82,354       20,178       0,012201
310,00       9865,1       690,67       54,541       1402,2       2727,9       3,3510       5,6244       0,52875      0,075836     82,168       20,207       0,012089
310,50       9932,5       689,55       55,001       1405,1       2726,7       3,3558       5,6201       0,52779      0,076188     81,981       20,237       0,011976
311,00       10000,       688,42       55,466       1408,1       2725,5       3,3607       5,6159       0,52682      0,076545     81,794       20,267       0,011864
311,50       10069,       687,28       55,934       1411,0       2724,2       3,3655       5,6117       0,52586      0,076907     81,608       20,297       0,011752
312,00       10137,       686,14       56,408       1414,0       2723,0       3,3704       5,6074       0,52490      0,077273     81,421       20,327       0,011640
312,50       10206,       685,00       56,885       1416,9       2721,7       3,3753       5,6032       0,52393      0,077645     81,234       20,358       0,011528
313,00       10275,       683,84       57,368       1419,9       2720,4       3,3802       5,5989       0,52296      0,078021     81,046       20,389       0,011416
313,50       10345,       682,69       57,855       1422,9       2719,1       3,3851       5,5946       0,52199      0,078403     80,859       20,420       0,011304
314,00       10415,       681,52       58,346       1425,8       2717,8       3,3900       5,5903       0,52101      0,078791     80,672       20,451       0,011193
314,50       10485,       680,35       58,843       1428,8       2716,4       3,3949       5,5859       0,52004      0,079184     80,484       20,482       0,011081
315,00       10556,       679,18       59,344       1431,8       2715,1       3,3998       5,5816       0,51906      0,079582     80,296       20,514       0,010970
315,50       10627,       678,00       59,850       1434,8       2713,7       3,4047       5,5772       0,51808      0,079986     80,108       20,546       0,010859
316,00       10699,       676,81       60,361       1437,8       2712,3       3,4097       5,5729       0,51710      0,080397     79,920       20,578       0,010748
316,50       10771,       675,62       60,877       1440,9       2710,9       3,4146       5,5685       0,51612      0,080813     79,732       20,611       0,010637
317,00       10843,       674,42       61,398       1443,9       2709,5       3,4195       5,5641       0,51514      0,081235     79,544       20,644       0,010526
317,50       10916,       673,22       61,925       1446,9       2708,0       3,4245       5,5596       0,51415      0,081664     79,355       20,677       0,010415
318,00       10989,       672,00       62,457       1450,0       2706,6       3,4295       5,5552       0,51316      0,082099     79,166       20,710       0,010305
318,50       11062,       670,79       62,994       1453,0       2705,1       3,4344       5,5507       0,51217      0,082540     78,977       20,744       0,010194
319,00       11136,       669,56       63,537       1456,1       2703,6       3,4394       5,5462       0,51118      0,082989     78,787       20,777       0,010084
319,50       11210,       668,33       64,085       1459,1       2702,1       3,4444       5,5417       0,51019      0,083444     78,598       20,812       0,0099742
320,00       11284,       667,09       64,638       1462,2       2700,6       3,4494       5,5372       0,50920      0,083907     78,408       20,846       0,0098644
320,50       11359,       665,85       65,198       1465,3       2699,0       3,4544       5,5327       0,50820      0,084376     78,218       20,881       0,0097546
321,00       11434,       664,60       65,763       1468,4       2697,5       3,4595       5,5281       0,50721      0,084853     78,027       20,916       0,0096451
321,50       11510,       663,34       66,334       1471,5       2695,9       3,4645       5,5235       0,50621      0,085338     77,836       20,951       0,0095356
322,00       11586,       662,07       66,912       1474,6       2694,3       3,4695       5,5189       0,50521      0,085830     77,645       20,987       0,0094264
322,50       11663,       660,80       67,495       1477,8       2692,7       3,4746       5,5143       0,50421      0,086331     77,454       21,023       0,0093173
323,00       11740,       659,52       68,084       1480,9       2691,1       3,4797       5,5096       0,50321      0,086839     77,262       21,059       0,0092084
323,50       11817,       658,24       68,680       1484,0       2689,4       3,4847       5,5050       0,50221      0,087356     77,070       21,096       0,0090996
324,00       11895,       656,94       69,282       1487,2       2687,7       3,4898       5,5003       0,50120      0,087882     76,878       21,133       0,0089911
324,50       11973,       655,64       69,891       1490,3       2686,0       3,4949       5,4956       0,50020      0,088416     76,685       21,170       0,0088827
325,00       12051,       654,33       70,506       1493,5       2684,3       3,5000       5,4908       0,49919      0,088959     76,492       21,208       0,0087744
325,50       12130,       653,01       71,128       1496,7       2682,6       3,5051       5,4861       0,49819      0,089512     76,298       21,246       0,0086664
326,00       12209,       651,68       71,757       1499,9       2680,8       3,5103       5,4813       0,49718      0,090074     76,104       21,284       0,0085585
326,50       12289,       650,35       72,393       1503,1       2679,1       3,5154       5,4765       0,49617      0,090646     75,910       21,323       0,0084509
327,00       12369,       649,01       73,036       1506,3       2677,3       3,5206       5,4717       0,49516      0,091227     75,715       21,362       0,0083434
327,50       12449,       647,66       73,686       1509,6       2675,5       3,5258       5,4668       0,49415      0,091819     75,519       21,402       0,0082361
328,00       12530,       646,30       74,344       1512,8       2673,6       3,5309       5,4619       0,49313      0,092421     75,324       21,442       0,0081290
328,50       12612,       644,93       75,009       1516,0       2671,8       3,5361       5,4570       0,49212      0,093034     75,127       21,482       0,0080221
329,00       12693,       643,55       75,682       1519,3       2669,9       3,5413       5,4521       0,49111      0,093659     74,930       21,523       0,0079154
329,50       12775,       642,17       76,362       1522,6       2668,0       3,5466       5,4471       0,49009      0,094294     74,733       21,564       0,0078089
330,00       12858,       640,77       77,050       1525,9       2666,0       3,5518       5,4422       0,48907      0,094941     74,535       21,606       0,0077026
330,50       12941,       639,37       77,747       1529,2       2664,1       3,5571       5,4371       0,48805      0,095600     74,337       21,648       0,0075965
331,00       13024,       637,96       78,452       1532,5       2662,1       3,5623       5,4321       0,48704      0,096272     74,138       21,691       0,0074906
331,50       13108,       636,53       79,165       1535,8       2660,1       3,5676       5,4270       0,48602      0,096956     73,938       21,734       0,0073850
332,00       13193,       635,10       79,887       1539,1       2658,1       3,5729       5,4219       0,48499      0,097653     73,738       21,778       0,0072796
332,50       13277,       633,66       80,617       1542,5       2656,0       3,5782       5,4168       0,48397      0,098363     73,537       21,822       0,0071744
333,00       13362,       632,20       81,356       1545,9       2653,9       3,5835       5,4116       0,48295      0,099087     73,335       21,867       0,0070694
333,50       13448,       630,74       82,105       1549,2       2651,8       3,5889       5,4064       0,48193      0,099825     73,133       21,912       0,0069646
334,00       13534,       629,27       82,863       1552,6       2649,7       3,5943       5,4012       0,48090      0,10058      72,930       21,958       0,0068601
334,50       13620,       627,78       83,630       1556,0       2647,5       3,5996       5,3959       0,47987      0,10135      72,727       22,004       0,0067558
335,00       13707,       626,29       84,407       1559,5       2645,4       3,6050       5,3906       0,47885      0,10213      72,522       22,051       0,0066518
335,50       13795,       624,78       85,194       1562,9       2643,1       3,6105       5,3853       0,47782      0,10293      72,317       22,098       0,0065480
336,00       13882,       623,26       85,991       1566,3       2640,9       3,6159       5,3799       0,47679      0,10374      72,111       22,146       0,0064444
336,50       13971,       621,73       86,798       1569,8       2638,6       3,6213       5,3745       0,47576      0,10457      71,904       22,195       0,0063411
337,00       14059,       620,19       87,616       1573,3       2636,3       3,6268       5,3691       0,47473      0,10542      71,697       22,244       0,0062381
337,50       14148,       618,63       88,444       1576,8       2634,0       3,6323       5,3636       0,47369      0,10629      71,488       22,294       0,0061353
338,00       14238,       617,07       89,284       1580,3       2631,6       3,6378       5,3581       0,47266      0,10718      71,279       22,345       0,0060328
338,50       14328,       615,49       90,135       1583,8       2629,2       3,6434       5,3525       0,47162      0,10808      71,068       22,396       0,0059305
339,00       14418,       613,89       90,998       1587,4       2626,8       3,6489       5,3469       0,47058      0,10900      70,857       22,448       0,0058286
339,50       14509,       612,29       91,872       1590,9       2624,3       3,6545       5,3413       0,46955      0,10995      70,645       22,501       0,0057269
340,00       14601,       610,67       92,759       1594,5       2621,8       3,6601       5,3356       0,46851      0,11091      70,431       22,554       0,0056255
340,50       14693,       609,03       93,658       1598,1       2619,3       3,6657       5,3299       0,46747      0,11190      70,217       22,608       0,0055244
341,00       14785,       607,38       94,570       1601,8       2616,8       3,6714       5,3241       0,46642      0,11291      70,001       22,663       0,0054235
341,50       14878,       605,72       95,494       1605,4       2614,2       3,6771       5,3183       0,46538      0,11394      69,785       22,719       0,0053230
342,00       14971,       604,04       96,433       1609,1       2611,5       3,6828       5,3124       0,46433      0,11500      69,567       22,776       0,0052228
342,50       15065,       602,35       97,385       1612,7       2608,9       3,6885       5,3065       0,46329      0,11608      69,348       22,833       0,0051229
343,00       15159,       600,64       98,351       1616,4       2606,1       3,6943       5,3005       0,46224      0,11718      69,127       22,892       0,0050233
343,50       15254,       598,91       99,331       1620,2       2603,4       3,7001       5,2945       0,46119      0,11831      68,906       22,951       0,0049240
344,00       15349,       597,17       100,33       1623,9       2600,6       3,7059       5,2885       0,46013      0,11947      68,683       23,011       0,0048251
344,50       15444,       595,41       101,34       1627,7       2597,8       3,7117       5,2823       0,45908      0,12066      68,458       23,072       0,0047264
345,00       15541,       593,63       102,36       1631,5       2594,9       3,7176       5,2762       0,45803      0,12188      68,232       23,135       0,0046282
345,50       15637,       591,83       103,41       1635,3       2592,0       3,7235       5,2699       0,45697      0,12312      68,004       23,198       0,0045302
346,00       15734,       590,01       104,47       1639,1       2589,0       3,7295       5,2636       0,45591      0,12440      67,775       23,262       0,0044326
346,50       15832,       588,18       105,54       1643,0       2586,0       3,7354       5,2573       0,45485      0,12572      67,545       23,328       0,0043354
347,00       15930,       586,32       106,64       1646,9       2583,0       3,7414       5,2509       0,45379      0,12706      67,312       23,394       0,0042385
347,50       16029,       584,44       107,75       1650,8       2579,9       3,7475       5,2444       0,45272      0,12845      67,078       23,462       0,0041420
348,00       16128,       582,54       108,88       1654,8       2576,7       3,7536       5,2379       0,45165      0,12986      66,842       23,531       0,0040459
348,50       16227,       580,62       110,03       1658,8       2573,5       3,7597       5,2313       0,45059      0,13132      66,603       23,601       0,0039502
349,00       16328,       578,67       111,20       1662,8       2570,3       3,7659       5,2246       0,44952      0,13282      66,363       23,673       0,0038549
349,50       16428,       576,70       112,39       1666,8       2567,0       3,7721       5,2178       0,44844      0,13436      66,121       23,746       0,0037599
350,00       16529,       574,71       113,61       1670,9       2563,6       3,7784       5,2110       0,44737      0,13595      65,877       23,820       0,0036654
350,50       16631,       572,69       114,84       1675,0       2560,2       3,7847       5,2041       0,44629      0,13758      65,630       23,896       0,0035713
351,00       16733,       570,64       116,10       1679,1       2556,8       3,7910       5,1971       0,44522      0,13926      65,381       23,974       0,0034776
351,50       16836,       568,56       117,38       1683,3       2553,2       3,7974       5,1901       0,44414      0,14098      65,129       24,053       0,0033844
352,00       16939,       566,46       118,68       1687,5       2549,6       3,8039       5,1829       0,44305      0,14277      64,875       24,133       0,0032916
352,50       17043,       564,32       120,02       1691,8       2546,0       3,8104       5,1757       0,44197      0,14460      64,617       24,216       0,0031992
353,00       17147,       562,15       121,37       1696,1       2542,3       3,8170       5,1683       0,44089      0,14650      64,358       24,300       0,0031074
353,50       17252,       559,95       122,76       1700,4       2538,5       3,8236       5,1609       0,43980      0,14846      64,095       24,386       0,0030160
354,00       17358,       557,72       124,17       1704,8       2534,6       3,8303       5,1534       0,43871      0,15048      63,829       24,474       0,0029251
354,50       17464,       555,45       125,62       1709,2       2530,7       3,8371       5,1458       0,43763      0,15257      63,559       24,564       0,0028347
355,00       17570,       553,14       127,09       1713,7       2526,6       3,8439       5,1380       0,43654      0,15473      63,286       24,656       0,0027448
355,50       17677,       550,79       128,60       1718,3       2522,6       3,8508       5,1302       0,43545      0,15697      63,010       24,751       0,0026554
356,00       17785,       548,41       130,14       1722,8       2518,4       3,8577       5,1222       0,43436      0,15929      62,730       24,848       0,0025666
356,50       17893,       545,97       131,71       1727,5       2514,1       3,8648       5,1141       0,43327      0,16170      62,446       24,947       0,0024783
357,00       18002,       543,50       133,33       1732,2       2509,8       3,8719       5,1059       0,43218      0,16420      62,158       25,049       0,0023906
357,50       18111,       540,98       134,98       1736,9       2505,3       3,8791       5,0976       0,43110      0,16680      61,865       25,154       0,0023035
358,00       18221,       538,41       136,67       1741,7       2500,8       3,8864       5,0891       0,43001      0,16950      61,568       25,261       0,0022170
358,50       18331,       535,79       138,41       1746,6       2496,1       3,8939       5,0805       0,42893      0,17231      61,266       25,372       0,0021310
359,00       18442,       533,11       140,19       1751,5       2491,4       3,9014       5,0717       0,42786      0,17524      60,959       25,486       0,0020458
359,50       18554,       530,38       142,02       1756,6       2486,5       3,9090       5,0627       0,42679      0,17831      60,647       25,603       0,0019611
360,00       18666,       527,59       143,90       1761,7       2481,5       3,9167       5,0536       0,42572      0,18151      60,329       25,724       0,0018772
360,50       18779,       524,74       145,83       1766,8       2476,4       3,9245       5,0443       0,42467      0,18487      60,006       25,849       0,0017939
361,00       18892,       521,82       147,82       1772,1       2471,1       3,9325       5,0347       0,42363      0,18839      59,676       25,978       0,0017114
361,50       19006,       518,84       149,87       1777,4       2465,7       3,9405       5,0250       0,42260      0,19209      59,340       26,112       0,0016296
362,00       19121,       515,79       151,99       1782,9       2460,2       3,9488       5,0151       0,42159      0,19598      58,998       26,250       0,0015485
362,50       19236,       512,66       154,17       1788,4       2454,4       3,9571       5,0049       0,42061      0,20010      58,649       26,393       0,0014683
363,00       19352,       509,45       156,43       1794,1       2448,6       3,9656       4,9945       0,41965      0,20445      58,292       26,542       0,0013889
363,50       19468,       506,16       158,77       1799,8       2442,5       3,9743       4,9838       0,41874      0,20907      57,928       26,697       0,0013103
364,00       19585,       502,78       161,20       1805,7       2436,2       3,9831       4,9727       0,41788      0,21399      57,555       26,859       0,0012326
364,50       19703,       499,31       163,72       1811,7       2429,7       3,9922       4,9614       0,41708      0,21924      57,174       27,027       0,0011558
365,00       19821,       495,74       166,35       1817,8       2422,9       4,0014       4,9497       0,41637      0,22488      56,784       27,203       0,0010801
365,50       19940,       492,06       169,09       1824,0       2415,9       4,0108       4,9376       0,41576      0,23094      56,384       27,388       0,0010053
366,00       20060,       488,27       171,95       1830,5       2408,7       4,0205       4,9251       0,41529      0,23749      55,973       27,583       0,00093155
366,50       20181,       484,35       174,95       1837,0       2401,0       4,0304       4,9121       0,41500      0,24462      55,550       27,788       0,00085895
367,00       20302,       480,29       178,11       1843,8       2393,1       4,0406       4,8986       0,41493      0,25243      55,115       28,005       0,00078752
367,50       20423,       476,07       181,44       1850,8       2384,7       4,0511       4,8845       0,41516      0,26103      54,664       28,235       0,00071734
368,00       20546,       471,67       184,98       1858,1       2375,9       4,0621       4,8697       0,41576      0,27058      54,196       28,481       0,00064847
368,50       20669,       467,06       188,74       1865,6       2366,6       4,0734       4,8541       0,41686      0,28131      53,707       28,745       0,00058102
369,00       20793,       462,18       192,77       1873,5       2356,6       4,0853       4,8376       0,41861      0,29347      53,194       29,029       0,00051508
369,50       20918,       457,00       197,12       1881,8       2346,0       4,0978       4,8201       0,42123      0,30747      52,650       29,339       0,00045076
370,00       21044,       451,43       201,84       1890,7       2334,5       4,1112       4,8012       0,42504      0,32384      52,069       29,678       0,00038822


